Study Name	V44_832864_470C
Sample Name	09-04-2025
Run Name	470C-baseline-hot
Operator	Alicia
Date	9/4/2025
Time	17:34
Sign	FIX
Grating Spacing	03.40um
Channel	3
Number Traces	10000
Files in Batch	1
Batch Number	2
dt	50.000001E-12
time stamp (ms)	5:36:26 PM
	
Time	Amplitude
0.000000E+0	-4.933019E-4
5.000000E-11	-6.320509E-4
1.000000E-10	-7.176984E-4
1.500000E-10	-7.536703E-4
2.000000E-10	-7.536703E-4
2.500000E-10	-7.228372E-4
3.000000E-10	-6.748746E-4
3.500000E-10	-6.200602E-4
4.000000E-10	-5.858012E-4
4.500000E-10	-5.840882E-4
5.000000E-10	-5.995048E-4
5.500000E-10	-6.234861E-4
6.000000E-10	-6.543192E-4
6.500000E-10	-6.954300E-4
7.000000E-10	-7.468185E-4
7.500000E-10	-8.204754E-4
8.000000E-10	-8.958452E-4
8.500000E-10	-9.335301E-4
9.000000E-10	-9.369560E-4
9.500000E-10	-9.301042E-4
1.000000E-9	-8.941322E-4
1.050000E-9	-8.307531E-4
1.100000E-9	-7.690869E-4
1.150000E-9	-7.211243E-4
1.200000E-9	-6.783005E-4
1.250000E-9	-6.577451E-4
1.300000E-9	-6.663099E-4
1.350000E-9	-6.937171E-4
1.400000E-9	-7.451056E-4
1.450000E-9	-8.136236E-4
1.500000E-9	-8.735768E-4
1.550000E-9	-9.181135E-4
1.600000E-9	-9.575114E-4
1.650000E-9	-9.797797E-4
1.700000E-9	-9.626502E-4
1.750000E-9	-9.112617E-4
1.800000E-9	-8.478826E-4
1.850000E-9	-7.964941E-4
1.900000E-9	-7.519574E-4
1.950000E-9	-6.885782E-4
2.000000E-9	-6.046436E-4
2.050000E-9	-5.446904E-4
2.100000E-9	-5.052925E-4
2.150000E-9	-4.556170E-4
2.200000E-9	-4.076544E-4
2.250000E-9	-3.939508E-4
2.300000E-9	-4.127932E-4
2.350000E-9	-4.539040E-4
2.400000E-9	-5.224220E-4
2.450000E-9	-6.097825E-4
2.500000E-9	-6.954300E-4
2.550000E-9	-7.793646E-4
2.600000E-9	-8.461696E-4
2.650000E-9	-8.701509E-4
2.700000E-9	-8.530214E-4
2.750000E-9	-8.119106E-4
2.800000E-9	-7.502444E-4
2.850000E-9	-6.765876E-4
2.900000E-9	-5.926530E-4
2.950000E-9	-4.898760E-4
3.000000E-9	-3.751083E-4
3.050000E-9	-2.517759E-4
3.100000E-9	-1.524248E-4
3.150000E-9	-1.078881E-4
3.200000E-9	-1.010363E-4
3.250000E-9	-1.233047E-4
3.300000E-9	-1.712673E-4
3.350000E-9	-2.534889E-4
3.400000E-9	-3.596918E-4
3.450000E-9	-4.967278E-4
3.500000E-9	-6.491804E-4
3.550000E-9	-7.742257E-4
3.600000E-9	-8.598732E-4
3.650000E-9	-9.215394E-4
3.700000E-9	-9.626502E-4
3.750000E-9	-9.712150E-4
3.800000E-9	-9.523725E-4
3.850000E-9	-9.112617E-4
3.900000E-9	-8.513085E-4
3.950000E-9	-7.588092E-4
4.000000E-9	-6.457545E-4
4.050000E-9	-5.446904E-4
4.100000E-9	-4.830242E-4
4.150000E-9	-4.504781E-4
4.200000E-9	-4.350616E-4
4.250000E-9	-4.419134E-4
4.300000E-9	-4.556170E-4
4.350000E-9	-4.676076E-4
4.400000E-9	-4.950148E-4
4.450000E-9	-5.378386E-4
4.500000E-9	-5.772364E-4
4.550000E-9	-5.995048E-4
4.600000E-9	-6.217731E-4
4.650000E-9	-6.251990E-4
4.700000E-9	-6.097825E-4
4.750000E-9	-5.772364E-4
4.800000E-9	-5.258479E-4
4.850000E-9	-4.658947E-4
4.900000E-9	-4.264968E-4
4.950000E-9	-4.042285E-4
5.000000E-9	-4.008026E-4
5.050000E-9	-4.008026E-4
5.100000E-9	-3.905249E-4
5.150000E-9	-3.888119E-4
5.200000E-9	-4.367745E-4
5.250000E-9	-5.001537E-4
5.300000E-9	-5.412645E-4
5.350000E-9	-5.772364E-4
5.400000E-9	-6.200602E-4
5.450000E-9	-6.114954E-4
5.500000E-9	-5.412645E-4
5.550000E-9	-4.333486E-4
5.600000E-9	-2.963126E-4
5.650000E-9	-1.404342E-4
5.700000E-9	-1.024998E-5
5.750000E-9	9.252702E-5
5.800000E-9	1.816004E-4
5.850000E-9	2.415537E-4
5.900000E-9	2.758127E-4
5.950000E-9	2.843774E-4
6.000000E-9	2.449796E-4
6.050000E-9	1.576191E-4
6.100000E-9	4.456442E-5
6.150000E-9	-9.589748E-5
6.200000E-9	-2.483500E-4
6.250000E-9	-3.733954E-4
6.300000E-9	-4.830242E-4
6.350000E-9	-6.063566E-4
6.400000E-9	-6.920041E-4
6.450000E-9	-7.022818E-4
6.500000E-9	-6.577451E-4
6.550000E-9	-6.114954E-4
6.600000E-9	-5.566810E-4
6.650000E-9	-4.933019E-4
6.700000E-9	-4.573299E-4
6.750000E-9	-4.333486E-4
6.800000E-9	-3.888119E-4
6.850000E-9	-3.322846E-4
6.900000E-9	-3.048774E-4
6.950000E-9	-2.963126E-4
7.000000E-9	-2.928867E-4
7.050000E-9	-3.151551E-4
7.100000E-9	-3.751083E-4
7.150000E-9	-4.573299E-4
7.200000E-9	-5.755235E-4
7.250000E-9	-7.194113E-4
7.300000E-9	-8.478826E-4
7.350000E-9	-9.695020E-4
7.400000E-9	-1.097973E-3
7.450000E-9	-1.200750E-3
7.500000E-9	-1.245287E-3
7.550000E-9	-1.264129E-3
7.600000E-9	-1.253852E-3
7.650000E-9	-1.161352E-3
7.700000E-9	-1.031168E-3
7.750000E-9	-9.301042E-4
7.800000E-9	-8.444567E-4
7.850000E-9	-7.656610E-4
7.900000E-9	-7.348279E-4
7.950000E-9	-7.176984E-4
8.000000E-9	-6.663099E-4
8.050000E-9	-6.166343E-4
8.100000E-9	-6.029307E-4
8.150000E-9	-5.789494E-4
8.200000E-9	-5.464033E-4
8.250000E-9	-5.309868E-4
8.300000E-9	-5.326997E-4
8.350000E-9	-5.326997E-4
8.400000E-9	-5.292738E-4
8.450000E-9	-5.087184E-4
8.500000E-9	-4.573299E-4
8.550000E-9	-4.264968E-4
8.600000E-9	-4.436263E-4
8.650000E-9	-4.813112E-4
8.700000E-9	-4.967278E-4
8.750000E-9	-5.172832E-4
8.800000E-9	-5.601069E-4
8.850000E-9	-6.423286E-4
8.900000E-9	-7.468185E-4
8.950000E-9	-8.547344E-4
9.000000E-9	-9.472337E-4
9.050000E-9	-1.031168E-3
9.100000E-9	-1.116816E-3
9.150000E-9	-1.175056E-3
9.200000E-9	-1.154501E-3
9.250000E-9	-1.056862E-3
9.300000E-9	-9.283912E-4
9.350000E-9	-7.913552E-4
9.400000E-9	-6.406156E-4
9.450000E-9	-4.590429E-4
9.500000E-9	-2.723313E-4
9.550000E-9	-1.627025E-4
9.600000E-9	-1.558507E-4
9.650000E-9	-1.541378E-4
9.700000E-9	-1.147399E-4
9.750000E-9	-1.113140E-4
9.800000E-9	-1.712673E-4
9.850000E-9	-2.569148E-4
9.900000E-9	-3.374234E-4
9.950000E-9	-4.008026E-4
1.000000E-8	-4.384875E-4
1.005000E-8	-4.693206E-4
1.010000E-8	-4.950148E-4
1.015000E-8	-4.778853E-4
1.020000E-8	-4.521911E-4
1.025000E-8	-4.778853E-4
1.030000E-8	-5.121443E-4
1.035000E-8	-4.967278E-4
1.040000E-8	-4.778853E-4
1.045000E-8	-5.035796E-4
1.050000E-8	-5.052925E-4
1.055000E-8	-4.504781E-4
1.060000E-8	-3.699695E-4
1.065000E-8	-3.048774E-4
1.070000E-8	-2.517759E-4
1.075000E-8	-1.901097E-4
1.080000E-8	-1.507119E-4
1.085000E-8	-1.489989E-4
1.090000E-8	-1.832579E-4
1.095000E-8	-2.517759E-4
1.100000E-8	-3.442752E-4
1.105000E-8	-4.573299E-4
1.110000E-8	-5.823753E-4
1.115000E-8	-6.902912E-4
1.120000E-8	-7.690869E-4
1.125000E-8	-8.513085E-4
1.130000E-8	-9.301042E-4
1.135000E-8	-9.455207E-4
1.140000E-8	-9.061229E-4
1.145000E-8	-8.907063E-4
1.150000E-8	-9.198265E-4
1.155000E-8	-9.866315E-4
1.160000E-8	-1.151075E-3
1.165000E-8	-1.418295E-3
1.170000E-8	-1.733478E-3
1.175000E-8	-2.105188E-3
1.180000E-8	-2.541990E-3
1.185000E-8	-2.927404E-3
1.190000E-8	-3.098699E-3
1.195000E-8	-2.951385E-3
1.200000E-8	-2.321020E-3
1.205000E-8	-1.015752E-3
1.210000E-8	1.091177E-3
1.215000E-8	4.136802E-3
1.220000E-8	8.227327E-3
1.225000E-8	1.332849E-2
1.230000E-8	1.924331E-2
1.235000E-8	2.579534E-2
1.240000E-8	3.274478E-2
1.245000E-8	3.974561E-2
1.250000E-8	4.645523E-2
1.255000E-8	5.270921E-2
1.260000E-8	5.839107E-2
1.265000E-8	6.349395E-2
1.270000E-8	6.796132E-2
1.275000E-8	7.176407E-2
1.280000E-8	7.484395E-2
1.285000E-8	7.711190E-2
1.290000E-8	7.847541E-2
1.295000E-8	7.893619E-2
1.300000E-8	7.850795E-2
1.305000E-8	7.724894E-2
1.310000E-8	7.535784E-2
1.315000E-8	7.320124E-2
1.320000E-8	7.113713E-2
1.325000E-8	6.935738E-2
1.330000E-8	6.785854E-2
1.335000E-8	6.662693E-2
1.340000E-8	6.572935E-2
1.345000E-8	6.515551E-2
1.350000E-8	6.467246E-2
1.355000E-8	6.415857E-2
1.360000E-8	6.375774E-2
1.365000E-8	6.364811E-2
1.370000E-8	6.381941E-2
1.375000E-8	6.425278E-2
1.380000E-8	6.498935E-2
1.385000E-8	6.616444E-2
1.390000E-8	6.761188E-2
1.395000E-8	6.930256E-2
1.400000E-8	7.121079E-2
1.405000E-8	7.310531E-2
1.410000E-8	7.471206E-2
1.415000E-8	7.602075E-2
1.420000E-8	7.706565E-2
1.425000E-8	7.769944E-2
1.430000E-8	7.777481E-2
1.435000E-8	7.738597E-2
1.440000E-8	7.659459E-2
1.445000E-8	7.529103E-2
1.450000E-8	7.351128E-2
1.455000E-8	7.141120E-2
1.460000E-8	6.927858E-2
1.465000E-8	6.733096E-2
1.470000E-8	6.561629E-2
1.475000E-8	6.414316E-2
1.480000E-8	6.288756E-2
1.485000E-8	6.191461E-2
1.490000E-8	6.123799E-2
1.495000E-8	6.084059E-2
1.500000E-8	6.066415E-2
1.505000E-8	6.077721E-2
1.510000E-8	6.119346E-2
1.515000E-8	6.188549E-2
1.520000E-8	6.276594E-2
1.525000E-8	6.391705E-2
1.530000E-8	6.532338E-2
1.535000E-8	6.681878E-2
1.540000E-8	6.829363E-2
1.545000E-8	6.977362E-2
1.550000E-8	7.124505E-2
1.555000E-8	7.247666E-2
1.560000E-8	7.336739E-2
1.565000E-8	7.393095E-2
1.570000E-8	7.409882E-2
1.575000E-8	7.377507E-2
1.580000E-8	7.296142E-2
1.585000E-8	7.174694E-2
1.590000E-8	7.014876E-2
1.595000E-8	6.827650E-2
1.600000E-8	6.629805E-2
1.605000E-8	6.430075E-2
1.610000E-8	6.240965E-2
1.615000E-8	6.069327E-2
1.620000E-8	5.922870E-2
1.625000E-8	5.806732E-2
1.630000E-8	5.724168E-2
1.635000E-8	5.667298E-2
1.640000E-8	5.634752E-2
1.645000E-8	5.640747E-2
1.650000E-8	5.685969E-2
1.655000E-8	5.763395E-2
1.660000E-8	5.866514E-2
1.665000E-8	5.995671E-2
1.670000E-8	6.146410E-2
1.675000E-8	6.312052E-2
1.680000E-8	6.479408E-2
1.685000E-8	6.635971E-2
1.690000E-8	6.784827E-2
1.695000E-8	6.916210E-2
1.700000E-8	7.005626E-2
1.705000E-8	7.050505E-2
1.710000E-8	7.059413E-2
1.715000E-8	7.026353E-2
1.720000E-8	6.938650E-2
1.725000E-8	6.803498E-2
1.730000E-8	6.635629E-2
1.735000E-8	6.443093E-2
1.740000E-8	6.240280E-2
1.745000E-8	6.037980E-2
1.750000E-8	5.838250E-2
1.755000E-8	5.651196E-2
1.760000E-8	5.498059E-2
1.765000E-8	5.386203E-2
1.770000E-8	5.309634E-2
1.775000E-8	5.266982E-2
1.780000E-8	5.258759E-2
1.785000E-8	5.285481E-2
1.790000E-8	5.343722E-2
1.795000E-8	5.432795E-2
1.800000E-8	5.544308E-2
1.805000E-8	5.678946E-2
1.810000E-8	5.832769E-2
1.815000E-8	5.998754E-2
1.820000E-8	6.158058E-2
1.825000E-8	6.308798E-2
1.830000E-8	6.447889E-2
1.835000E-8	6.559916E-2
1.840000E-8	6.634944E-2
1.845000E-8	6.669374E-2
1.850000E-8	6.657212E-2
1.855000E-8	6.595374E-2
1.860000E-8	6.489685E-2
1.865000E-8	6.346654E-2
1.870000E-8	6.169021E-2
1.875000E-8	5.972888E-2
1.880000E-8	5.773672E-2
1.885000E-8	5.576169E-2
1.890000E-8	5.389971E-2
1.895000E-8	5.224843E-2
1.900000E-8	5.084210E-2
1.905000E-8	4.971326E-2
1.910000E-8	4.898183E-2
1.915000E-8	4.867179E-2
1.920000E-8	4.868721E-2
1.925000E-8	4.900924E-2
1.930000E-8	4.969271E-2
1.935000E-8	5.078043E-2
1.940000E-8	5.211482E-2
1.945000E-8	5.368560E-2
1.950000E-8	5.541054E-2
1.955000E-8	5.721085E-2
1.960000E-8	5.899403E-2
1.965000E-8	6.070355E-2
1.970000E-8	6.227090E-2
1.975000E-8	6.353163E-2
1.980000E-8	6.436413E-2
1.985000E-8	6.472556E-2
1.990000E-8	6.457482E-2
1.995000E-8	6.390334E-2
2.000000E-8	6.277108E-2
2.005000E-8	6.123285E-2
2.010000E-8	5.934347E-2
2.015000E-8	5.723997E-2
2.020000E-8	5.510220E-2
2.025000E-8	5.302954E-2
2.030000E-8	5.114358E-2
2.035000E-8	4.955396E-2
2.040000E-8	4.832577E-2
2.045000E-8	4.741449E-2
2.050000E-8	4.685092E-2
2.055000E-8	4.667106E-2
2.060000E-8	4.687491E-2
2.065000E-8	4.745388E-2
2.070000E-8	4.837716E-2
2.075000E-8	4.956252E-2
2.080000E-8	5.098941E-2
2.085000E-8	5.255162E-2
2.090000E-8	5.424402E-2
2.095000E-8	5.600493E-2
2.100000E-8	5.775214E-2
2.105000E-8	5.938115E-2
2.110000E-8	6.077378E-2
2.115000E-8	6.187007E-2
2.120000E-8	6.253641E-2
2.125000E-8	6.269571E-2
2.130000E-8	6.230345E-2
2.135000E-8	6.135619E-2
2.140000E-8	5.994985E-2
2.145000E-8	5.817695E-2
2.150000E-8	5.614882E-2
2.155000E-8	5.402133E-2
2.160000E-8	5.192126E-2
2.165000E-8	4.991368E-2
2.170000E-8	4.807740E-2
2.175000E-8	4.651347E-2
2.180000E-8	4.531270E-2
2.185000E-8	4.452303E-2
2.190000E-8	4.417358E-2
2.195000E-8	4.417872E-2
2.200000E-8	4.454701E-2
2.205000E-8	4.526987E-2
2.210000E-8	4.628908E-2
2.215000E-8	4.754296E-2
2.220000E-8	4.900924E-2
2.225000E-8	5.063826E-2
2.230000E-8	5.234607E-2
2.235000E-8	5.407957E-2
2.240000E-8	5.569317E-2
2.245000E-8	5.710122E-2
2.250000E-8	5.826431E-2
2.255000E-8	5.909680E-2
2.260000E-8	5.947194E-2
2.265000E-8	5.935717E-2
2.270000E-8	5.876792E-2
2.275000E-8	5.770589E-2
2.280000E-8	5.622590E-2
2.285000E-8	5.448726E-2
2.290000E-8	5.259273E-2
2.295000E-8	5.059543E-2
2.300000E-8	4.856730E-2
2.305000E-8	4.665394E-2
2.310000E-8	4.493242E-2
2.315000E-8	4.345757E-2
2.320000E-8	4.230989E-2
2.325000E-8	4.156819E-2
2.330000E-8	4.122902E-2
2.335000E-8	4.124101E-2
2.340000E-8	4.164356E-2
2.345000E-8	4.242295E-2
2.350000E-8	4.349183E-2
2.355000E-8	4.482622E-2
2.360000E-8	4.639014E-2
2.365000E-8	4.807911E-2
2.370000E-8	4.976637E-2
2.375000E-8	5.140395E-2
2.380000E-8	5.295417E-2
2.385000E-8	5.426115E-2
2.390000E-8	5.526836E-2
2.395000E-8	5.596382E-2
2.400000E-8	5.624303E-2
2.405000E-8	5.599294E-2
2.410000E-8	5.515188E-2
2.415000E-8	5.383462E-2
2.420000E-8	5.219190E-2
2.425000E-8	5.033506E-2
2.430000E-8	4.828295E-2
2.435000E-8	4.619144E-2
2.440000E-8	4.424553E-2
2.445000E-8	4.248804E-2
2.450000E-8	4.092583E-2
2.455000E-8	3.963769E-2
2.460000E-8	3.869900E-2
2.465000E-8	3.817655E-2
2.470000E-8	3.808405E-2
2.475000E-8	3.837182E-2
2.480000E-8	3.898163E-2
2.485000E-8	3.992718E-2
2.490000E-8	4.117421E-2
2.495000E-8	4.262679E-2
2.500000E-8	4.423525E-2
2.505000E-8	4.594135E-2
2.510000E-8	4.762518E-2
2.515000E-8	4.918054E-2
2.520000E-8	5.060914E-2
2.525000E-8	5.179792E-2
2.530000E-8	5.265269E-2
2.535000E-8	5.308778E-2
2.540000E-8	5.312546E-2
2.545000E-8	5.273491E-2
2.550000E-8	5.188357E-2
2.555000E-8	5.058858E-2
2.560000E-8	4.894758E-2
2.565000E-8	4.707532E-2
2.570000E-8	4.509515E-2
2.575000E-8	4.309443E-2
2.580000E-8	4.117935E-2
2.585000E-8	3.943899E-2
2.590000E-8	3.794187E-2
2.595000E-8	3.672910E-2
2.600000E-8	3.589661E-2
2.605000E-8	3.547865E-2
2.610000E-8	3.547694E-2
2.615000E-8	3.587434E-2
2.620000E-8	3.665373E-2
2.625000E-8	3.774146E-2
2.630000E-8	3.912038E-2
2.635000E-8	4.073398E-2
2.640000E-8	4.240925E-2
2.645000E-8	4.409136E-2
2.650000E-8	4.578376E-2
2.655000E-8	4.737337E-2
2.660000E-8	4.867008E-2
2.665000E-8	4.962590E-2
2.670000E-8	5.024599E-2
2.675000E-8	5.044298E-2
2.680000E-8	5.013808E-2
2.685000E-8	4.938780E-2
2.690000E-8	4.826240E-2
2.695000E-8	4.681495E-2
2.700000E-8	4.512941E-2
2.705000E-8	4.333081E-2
2.710000E-8	4.149282E-2
2.715000E-8	3.968052E-2
2.720000E-8	3.801210E-2
2.725000E-8	3.658521E-2
2.730000E-8	3.544439E-2
2.735000E-8	3.462046E-2
2.740000E-8	3.410144E-2
2.745000E-8	3.392158E-2
2.750000E-8	3.410486E-2
2.755000E-8	3.461875E-2
2.760000E-8	3.540671E-2
2.765000E-8	3.648072E-2
2.770000E-8	3.780312E-2
2.775000E-8	3.926941E-2
2.780000E-8	4.079565E-2
2.785000E-8	4.233388E-2
2.790000E-8	4.382928E-2
2.795000E-8	4.517737E-2
2.800000E-8	4.631991E-2
2.805000E-8	4.717639E-2
2.810000E-8	4.767999E-2
2.815000E-8	4.778106E-2
2.820000E-8	4.745046E-2
2.825000E-8	4.670532E-2
2.830000E-8	4.556964E-2
2.835000E-8	4.411534E-2
2.840000E-8	4.242295E-2
2.845000E-8	4.061407E-2
2.850000E-8	3.876923E-2
2.855000E-8	3.694836E-2
2.860000E-8	3.526967E-2
2.865000E-8	3.383936E-2
2.870000E-8	3.272251E-2
2.875000E-8	3.193627E-2
2.880000E-8	3.148919E-2
2.885000E-8	3.139498E-2
2.890000E-8	3.166734E-2
2.895000E-8	3.231997E-2
2.900000E-8	3.324839E-2
2.905000E-8	3.438065E-2
2.910000E-8	3.570133E-2
2.915000E-8	3.715220E-2
2.920000E-8	3.864247E-2
2.925000E-8	4.011732E-2
2.930000E-8	4.155448E-2
2.935000E-8	4.285461E-2
2.940000E-8	4.392692E-2
2.945000E-8	4.471145E-2
2.950000E-8	4.517737E-2
2.955000E-8	4.526816E-2
2.960000E-8	4.495469E-2
2.965000E-8	4.424895E-2
2.970000E-8	4.313896E-2
2.975000E-8	4.168467E-2
2.980000E-8	4.003167E-2
2.985000E-8	3.827932E-2
2.990000E-8	3.648072E-2
2.995000E-8	3.469069E-2
3.000000E-8	3.302570E-2
3.005000E-8	3.158169E-2
3.010000E-8	3.042373E-2
3.015000E-8	2.959980E-2
3.020000E-8	2.913217E-2
3.025000E-8	2.909277E-2
3.030000E-8	2.950217E-2
3.035000E-8	3.025073E-2
3.040000E-8	3.128706E-2
3.045000E-8	3.259404E-2
3.050000E-8	3.408431E-2
3.055000E-8	3.564652E-2
3.060000E-8	3.721215E-2
3.065000E-8	3.872469E-2
3.070000E-8	4.010019E-2
3.075000E-8	4.129069E-2
3.080000E-8	4.223281E-2
3.085000E-8	4.284433E-2
3.090000E-8	4.308586E-2
3.095000E-8	4.296253E-2
3.100000E-8	4.244008E-2
3.105000E-8	4.150995E-2
3.110000E-8	4.025435E-2
3.115000E-8	3.876409E-2
3.120000E-8	3.708882E-2
3.125000E-8	3.533819E-2
3.130000E-8	3.361325E-2
3.135000E-8	3.199108E-2
3.140000E-8	3.054193E-2
3.145000E-8	2.937541E-2
3.150000E-8	2.853264E-2
3.155000E-8	2.802218E-2
3.160000E-8	2.790570E-2
3.165000E-8	2.820375E-2
3.170000E-8	2.886666E-2
3.175000E-8	2.979679E-2
3.180000E-8	3.093077E-2
3.185000E-8	3.225830E-2
3.190000E-8	3.372459E-2
3.195000E-8	3.520629E-2
3.200000E-8	3.658521E-2
3.205000E-8	3.786650E-2
3.210000E-8	3.901075E-2
3.215000E-8	3.991519E-2
3.220000E-8	4.054898E-2
3.225000E-8	4.088815E-2
3.230000E-8	4.087787E-2
3.235000E-8	4.048903E-2
3.240000E-8	3.974047E-2
3.245000E-8	3.866474E-2
3.250000E-8	3.729438E-2
3.255000E-8	3.570990E-2
3.260000E-8	3.403292E-2
3.265000E-8	3.239363E-2
3.270000E-8	3.084683E-2
3.275000E-8	2.942680E-2
3.280000E-8	2.820204E-2
3.285000E-8	2.725649E-2
3.290000E-8	2.661585E-2
3.295000E-8	2.631265E-2
3.300000E-8	2.636747E-2
3.305000E-8	2.676145E-2
3.310000E-8	2.742778E-2
3.315000E-8	2.835449E-2
3.320000E-8	2.950045E-2
3.325000E-8	3.075433E-2
3.330000E-8	3.200993E-2
3.335000E-8	3.323297E-2
3.340000E-8	3.442518E-2
3.345000E-8	3.550777E-2
3.350000E-8	3.641049E-2
3.355000E-8	3.710938E-2
3.360000E-8	3.755988E-2
3.365000E-8	3.774317E-2
3.370000E-8	3.764382E-2
3.375000E-8	3.727725E-2
3.380000E-8	3.664688E-2
3.385000E-8	3.577842E-2
3.390000E-8	3.469583E-2
3.395000E-8	3.345394E-2
3.400000E-8	3.212812E-2
3.405000E-8	3.078345E-2
3.410000E-8	2.944907E-2
3.415000E-8	2.820546E-2
3.420000E-8	2.715200E-2
3.425000E-8	2.630580E-2
3.430000E-8	2.568400E-2
3.435000E-8	2.537396E-2
3.440000E-8	2.543562E-2
3.445000E-8	2.580562E-2
3.450000E-8	2.643256E-2
3.455000E-8	2.735241E-2
3.460000E-8	2.852236E-2
3.465000E-8	2.979337E-2
3.470000E-8	3.108836E-2
3.475000E-8	3.237992E-2
3.480000E-8	3.360982E-2
3.485000E-8	3.467014E-2
3.490000E-8	3.551976E-2
3.495000E-8	3.612614E-2
3.500000E-8	3.643276E-2
3.505000E-8	3.638994E-2
3.510000E-8	3.604050E-2
3.515000E-8	3.543583E-2
3.520000E-8	3.456051E-2
3.525000E-8	3.341626E-2
3.530000E-8	3.207502E-2
3.535000E-8	3.066012E-2
3.540000E-8	2.927092E-2
3.545000E-8	2.790912E-2
3.550000E-8	2.664154E-2
3.555000E-8	2.556923E-2
3.560000E-8	2.474017E-2
3.565000E-8	2.412693E-2
3.570000E-8	2.377064E-2
3.575000E-8	2.377235E-2
3.580000E-8	2.410980E-2
3.585000E-8	2.470077E-2
3.590000E-8	2.555382E-2
3.595000E-8	2.668094E-2
3.600000E-8	2.793482E-2
3.605000E-8	2.919897E-2
3.610000E-8	3.046142E-2
3.615000E-8	3.166562E-2
3.620000E-8	3.269339E-2
3.625000E-8	3.351561E-2
3.630000E-8	3.411685E-2
3.635000E-8	3.442861E-2
3.640000E-8	3.439093E-2
3.645000E-8	3.403977E-2
3.650000E-8	3.340427E-2
3.655000E-8	3.253923E-2
3.660000E-8	3.150289E-2
3.665000E-8	3.037920E-2
3.670000E-8	2.921096E-2
3.675000E-8	2.804787E-2
3.680000E-8	2.694131E-2
3.685000E-8	2.592381E-2
3.690000E-8	2.499026E-2
3.695000E-8	2.417489E-2
3.700000E-8	2.356337E-2
3.705000E-8	2.319508E-2
3.710000E-8	2.305120E-2
3.715000E-8	2.311629E-2
3.720000E-8	2.338351E-2
3.725000E-8	2.383915E-2
3.730000E-8	2.449179E-2
3.735000E-8	2.529174E-2
3.740000E-8	2.620816E-2
3.745000E-8	2.722737E-2
3.750000E-8	2.831509E-2
3.755000E-8	2.936856E-2
3.760000E-8	3.030211E-2
3.765000E-8	3.107294E-2
3.770000E-8	3.163650E-2
3.775000E-8	3.194655E-2
3.780000E-8	3.199622E-2
3.785000E-8	3.180095E-2
3.790000E-8	3.131447E-2
3.795000E-8	3.056420E-2
3.800000E-8	2.966318E-2
3.805000E-8	2.866625E-2
3.810000E-8	2.756996E-2
3.815000E-8	2.647367E-2
3.820000E-8	2.547673E-2
3.825000E-8	2.456544E-2
3.830000E-8	2.375351E-2
3.835000E-8	2.309916E-2
3.840000E-8	2.263495E-2
3.845000E-8	2.234375E-2
3.850000E-8	2.225467E-2
3.855000E-8	2.239342E-2
3.860000E-8	2.274800E-2
3.865000E-8	2.327217E-2
3.870000E-8	2.395221E-2
3.875000E-8	2.475044E-2
3.880000E-8	2.565488E-2
3.885000E-8	2.661242E-2
3.890000E-8	2.758880E-2
3.895000E-8	2.852407E-2
3.900000E-8	2.936170E-2
3.905000E-8	3.003147E-2
3.910000E-8	3.047855E-2
3.915000E-8	3.067382E-2
3.920000E-8	3.058132E-2
3.925000E-8	3.017536E-2
3.930000E-8	2.948675E-2
3.935000E-8	2.856690E-2
3.940000E-8	2.752028E-2
3.945000E-8	2.642742E-2
3.950000E-8	2.531229E-2
3.955000E-8	2.420230E-2
3.960000E-8	2.318995E-2
3.965000E-8	2.236088E-2
3.970000E-8	2.171167E-2
3.975000E-8	2.125602E-2
3.980000E-8	2.105904E-2
3.985000E-8	2.107788E-2
3.990000E-8	2.123718E-2
3.995000E-8	2.154894E-2
4.000000E-8	2.207824E-2
4.005000E-8	2.273259E-2
4.010000E-8	2.343490E-2
4.015000E-8	2.421943E-2
4.020000E-8	2.508104E-2
4.025000E-8	2.593923E-2
4.030000E-8	2.675973E-2
4.035000E-8	2.752371E-2
4.040000E-8	2.815579E-2
4.045000E-8	2.862685E-2
4.050000E-8	2.893518E-2
4.055000E-8	2.900370E-2
4.060000E-8	2.879472E-2
4.065000E-8	2.835449E-2
4.070000E-8	2.769500E-2
4.075000E-8	2.683339E-2
4.080000E-8	2.584844E-2
4.085000E-8	2.480354E-2
4.090000E-8	2.371411E-2
4.095000E-8	2.263152E-2
4.100000E-8	2.164829E-2
4.105000E-8	2.082950E-2
4.110000E-8	2.020427E-2
4.115000E-8	1.979830E-2
4.120000E-8	1.961844E-2
4.125000E-8	1.967497E-2
4.130000E-8	1.996103E-2
4.135000E-8	2.045608E-2
4.140000E-8	2.111899E-2
4.145000E-8	2.190866E-2
4.150000E-8	2.278055E-2
4.155000E-8	2.368156E-2
4.160000E-8	2.455345E-2
4.165000E-8	2.534484E-2
4.170000E-8	2.606599E-2
4.175000E-8	2.667580E-2
4.180000E-8	2.712288E-2
4.185000E-8	2.739695E-2
4.190000E-8	2.750144E-2
4.195000E-8	2.741408E-2
4.200000E-8	2.710575E-2
4.205000E-8	2.659015E-2
4.210000E-8	2.589469E-2
4.215000E-8	2.506563E-2
4.220000E-8	2.415605E-2
4.225000E-8	2.319337E-2
4.230000E-8	2.223755E-2
4.235000E-8	2.135195E-2
4.240000E-8	2.057770E-2
4.245000E-8	1.991992E-2
4.250000E-8	1.942317E-2
4.255000E-8	1.912512E-2
4.260000E-8	1.901377E-2
4.265000E-8	1.907201E-2
4.270000E-8	1.932210E-2
4.275000E-8	1.975548E-2
4.280000E-8	2.033960E-2
4.285000E-8	2.105390E-2
4.290000E-8	2.186755E-2
4.295000E-8	2.271717E-2
4.300000E-8	2.354967E-2
4.305000E-8	2.430508E-2
4.310000E-8	2.496285E-2
4.315000E-8	2.546132E-2
4.320000E-8	2.575937E-2
4.325000E-8	2.588270E-2
4.330000E-8	2.582104E-2
4.335000E-8	2.554696E-2
4.340000E-8	2.505535E-2
4.345000E-8	2.441128E-2
4.350000E-8	2.362846E-2
4.355000E-8	2.275143E-2
4.360000E-8	2.185727E-2
4.365000E-8	2.099737E-2
4.370000E-8	2.018201E-2
4.375000E-8	1.946428E-2
4.380000E-8	1.889901E-2
4.385000E-8	1.847248E-2
4.390000E-8	1.818128E-2
4.395000E-8	1.807679E-2
4.400000E-8	1.818299E-2
4.405000E-8	1.844336E-2
4.410000E-8	1.882364E-2
4.415000E-8	1.933238E-2
4.420000E-8	1.994219E-2
4.425000E-8	2.059825E-2
4.430000E-8	2.128343E-2
4.435000E-8	2.195662E-2
4.440000E-8	2.256986E-2
4.445000E-8	2.310259E-2
4.450000E-8	2.354795E-2
4.455000E-8	2.387855E-2
4.460000E-8	2.405499E-2
4.465000E-8	2.407897E-2
4.470000E-8	2.393508E-2
4.475000E-8	2.358735E-2
4.480000E-8	2.306147E-2
4.485000E-8	2.243111E-2
4.490000E-8	2.173394E-2
4.495000E-8	2.098880E-2
4.500000E-8	2.022997E-2
4.505000E-8	1.948312E-2
4.510000E-8	1.878595E-2
4.515000E-8	1.817957E-2
4.520000E-8	1.768966E-2
4.525000E-8	1.734193E-2
4.530000E-8	1.715180E-2
4.535000E-8	1.714152E-2
4.540000E-8	1.728883E-2
4.545000E-8	1.757832E-2
4.550000E-8	1.802026E-2
4.555000E-8	1.859410E-2
4.560000E-8	1.923646E-2
4.565000E-8	1.990965E-2
4.570000E-8	2.059311E-2
4.575000E-8	2.125774E-2
4.580000E-8	2.185556E-2
4.585000E-8	2.234204E-2
4.590000E-8	2.270861E-2
4.595000E-8	2.291930E-2
4.600000E-8	2.296212E-2
4.605000E-8	2.284564E-2
4.610000E-8	2.258185E-2
4.615000E-8	2.215361E-2
4.620000E-8	2.157977E-2
4.625000E-8	2.091343E-2
4.630000E-8	2.018201E-2
4.635000E-8	1.943345E-2
4.640000E-8	1.873285E-2
4.645000E-8	1.810420E-2
4.650000E-8	1.752693E-2
4.655000E-8	1.703532E-2
4.660000E-8	1.668759E-2
4.665000E-8	1.649060E-2
4.670000E-8	1.645120E-2
4.675000E-8	1.657282E-2
4.680000E-8	1.682976E-2
4.685000E-8	1.718606E-2
4.690000E-8	1.763485E-2
4.695000E-8	1.817100E-2
4.700000E-8	1.876026E-2
4.705000E-8	1.937692E-2
4.710000E-8	1.999701E-2
4.715000E-8	2.058455E-2
4.720000E-8	2.111214E-2
4.725000E-8	2.155065E-2
4.730000E-8	2.187783E-2
4.735000E-8	2.205255E-2
4.740000E-8	2.206968E-2
4.745000E-8	2.195148E-2
4.750000E-8	2.169454E-2
4.755000E-8	2.130913E-2
4.760000E-8	2.080894E-2
4.765000E-8	2.021284E-2
4.770000E-8	1.955164E-2
4.775000E-8	1.885276E-2
4.780000E-8	1.814702E-2
4.785000E-8	1.748753E-2
4.790000E-8	1.690856E-2
4.795000E-8	1.642893E-2
4.800000E-8	1.603324E-2
4.805000E-8	1.575403E-2
4.810000E-8	1.562898E-2
4.815000E-8	1.569236E-2
4.820000E-8	1.590648E-2
4.825000E-8	1.625764E-2
4.830000E-8	1.670643E-2
4.835000E-8	1.724772E-2
4.840000E-8	1.786610E-2
4.845000E-8	1.851188E-2
4.850000E-8	1.912340E-2
4.855000E-8	1.966127E-2
4.860000E-8	2.009464E-2
4.865000E-8	2.040298E-2
4.870000E-8	2.058455E-2
4.875000E-8	2.063936E-2
4.880000E-8	2.057084E-2
4.885000E-8	2.039441E-2
4.890000E-8	2.009293E-2
4.895000E-8	1.962358E-2
4.900000E-8	1.902234E-2
4.905000E-8	1.838855E-2
4.910000E-8	1.774105E-2
4.915000E-8	1.707129E-2
4.920000E-8	1.643750E-2
4.925000E-8	1.590306E-2
4.930000E-8	1.547139E-2
4.935000E-8	1.516477E-2
4.940000E-8	1.500718E-2
4.945000E-8	1.500033E-2
4.950000E-8	1.512880E-2
4.955000E-8	1.540287E-2
4.960000E-8	1.580199E-2
4.965000E-8	1.628847E-2
4.970000E-8	1.680578E-2
4.975000E-8	1.731281E-2
4.980000E-8	1.779587E-2
4.985000E-8	1.824637E-2
4.990000E-8	1.863864E-2
4.995000E-8	1.892127E-2
5.000000E-8	1.908914E-2
5.005000E-8	1.917479E-2
5.010000E-8	1.917479E-2
5.015000E-8	1.907887E-2
5.020000E-8	1.889901E-2
5.025000E-8	1.865063E-2
5.030000E-8	1.832003E-2
5.035000E-8	1.794147E-2
5.040000E-8	1.756119E-2
5.045000E-8	1.717064E-2
5.050000E-8	1.671499E-2
5.055000E-8	1.623023E-2
5.060000E-8	1.576945E-2
5.065000E-8	1.533436E-2
5.070000E-8	1.491640E-2
5.075000E-8	1.456524E-2
5.080000E-8	1.435284E-2
5.085000E-8	1.428774E-2
5.090000E-8	1.437510E-2
5.095000E-8	1.461834E-2
5.100000E-8	1.500376E-2
5.105000E-8	1.548167E-2
5.110000E-8	1.599727E-2
5.115000E-8	1.655226E-2
5.120000E-8	1.715008E-2
5.125000E-8	1.774448E-2
5.130000E-8	1.826350E-2
5.135000E-8	1.866947E-2
5.140000E-8	1.897266E-2
5.145000E-8	1.914396E-2
5.150000E-8	1.913711E-2
5.155000E-8	1.891614E-2
5.160000E-8	1.854271E-2
5.165000E-8	1.807508E-2
5.170000E-8	1.753207E-2
5.175000E-8	1.694110E-2
5.180000E-8	1.634500E-2
5.185000E-8	1.577287E-2
5.190000E-8	1.524357E-2
5.195000E-8	1.479135E-2
5.200000E-8	1.442992E-2
5.205000E-8	1.414043E-2
5.210000E-8	1.392117E-2
5.215000E-8	1.381326E-2
5.220000E-8	1.382182E-2
5.225000E-8	1.392460E-2
5.230000E-8	1.410788E-2
5.235000E-8	1.440080E-2
5.240000E-8	1.480506E-2
5.245000E-8	1.528468E-2
5.250000E-8	1.578829E-2
5.255000E-8	1.629361E-2
5.260000E-8	1.678865E-2
5.265000E-8	1.721689E-2
5.270000E-8	1.752008E-2
5.275000E-8	1.767253E-2
5.280000E-8	1.767082E-2
5.285000E-8	1.750809E-2
5.290000E-8	1.718948E-2
5.295000E-8	1.675953E-2
5.300000E-8	1.627134E-2
5.305000E-8	1.574718E-2
5.310000E-8	1.521959E-2
5.315000E-8	1.472626E-2
5.320000E-8	1.427404E-2
5.325000E-8	1.385779E-2
5.330000E-8	1.351520E-2
5.335000E-8	1.327196E-2
5.340000E-8	1.313664E-2
5.345000E-8	1.309039E-2
5.350000E-8	1.314007E-2
5.355000E-8	1.327882E-2
5.360000E-8	1.349636E-2
5.365000E-8	1.379441E-2
5.370000E-8	1.412844E-2
5.375000E-8	1.445904E-2
5.380000E-8	1.478793E-2
5.385000E-8	1.511167E-2
5.390000E-8	1.541829E-2
5.395000E-8	1.572491E-2
5.400000E-8	1.602125E-2
5.405000E-8	1.625764E-2
5.410000E-8	1.643578E-2
5.415000E-8	1.657453E-2
5.420000E-8	1.663277E-2
5.425000E-8	1.657625E-2
5.430000E-8	1.642722E-2
5.435000E-8	1.621653E-2
5.440000E-8	1.595616E-2
5.445000E-8	1.566324E-2
5.450000E-8	1.531723E-2
5.455000E-8	1.492496E-2
5.460000E-8	1.452584E-2
5.465000E-8	1.415242E-2
5.470000E-8	1.380469E-2
5.475000E-8	1.352034E-2
5.480000E-8	1.332849E-2
5.485000E-8	1.321886E-2
5.490000E-8	1.319659E-2
5.495000E-8	1.326511E-2
5.500000E-8	1.342099E-2
5.505000E-8	1.365567E-2
5.510000E-8	1.395029E-2
5.515000E-8	1.426890E-2
5.520000E-8	1.456353E-2
5.525000E-8	1.481191E-2
5.530000E-8	1.502945E-2
5.535000E-8	1.522130E-2
5.540000E-8	1.536519E-2
5.545000E-8	1.543028E-2
5.550000E-8	1.542857E-2
5.555000E-8	1.538403E-2
5.560000E-8	1.530524E-2
5.565000E-8	1.518704E-2
5.570000E-8	1.502945E-2
5.575000E-8	1.482390E-2
5.580000E-8	1.458237E-2
5.585000E-8	1.433228E-2
5.590000E-8	1.406506E-2
5.595000E-8	1.379270E-2
5.600000E-8	1.353062E-2
5.605000E-8	1.327025E-2
5.610000E-8	1.301160E-2
5.615000E-8	1.278549E-2
5.620000E-8	1.263646E-2
5.625000E-8	1.257822E-2
5.630000E-8	1.260563E-2
5.635000E-8	1.271183E-2
5.640000E-8	1.288998E-2
5.645000E-8	1.313150E-2
5.650000E-8	1.342270E-2
5.655000E-8	1.373960E-2
5.660000E-8	1.406849E-2
5.665000E-8	1.437853E-2
5.670000E-8	1.462520E-2
5.675000E-8	1.481533E-2
5.680000E-8	1.496436E-2
5.685000E-8	1.502431E-2
5.690000E-8	1.496950E-2
5.695000E-8	1.483418E-2
5.700000E-8	1.466631E-2
5.705000E-8	1.445904E-2
5.710000E-8	1.420381E-2
5.715000E-8	1.392289E-2
5.720000E-8	1.363511E-2
5.725000E-8	1.334905E-2
5.730000E-8	1.305785E-2
5.735000E-8	1.276836E-2
5.740000E-8	1.250456E-2
5.745000E-8	1.226132E-2
5.750000E-8	1.203008E-2
5.755000E-8	1.183823E-2
5.760000E-8	1.169091E-2
5.765000E-8	1.160013E-2
5.770000E-8	1.155901E-2
5.775000E-8	1.158642E-2
5.780000E-8	1.169948E-2
5.785000E-8	1.190160E-2
5.790000E-8	1.217396E-2
5.795000E-8	1.248915E-2
5.800000E-8	1.285743E-2
5.805000E-8	1.326854E-2
5.810000E-8	1.366423E-2
5.815000E-8	1.400168E-2
5.820000E-8	1.425177E-2
5.825000E-8	1.437339E-2
5.830000E-8	1.436654E-2
5.835000E-8	1.427575E-2
5.840000E-8	1.410788E-2
5.845000E-8	1.383724E-2
5.850000E-8	1.351006E-2
5.855000E-8	1.318803E-2
5.860000E-8	1.285058E-2
5.865000E-8	1.247030E-2
5.870000E-8	1.210716E-2
5.875000E-8	1.179883E-2
5.880000E-8	1.154702E-2
5.885000E-8	1.136374E-2
5.890000E-8	1.126267E-2
5.895000E-8	1.125754E-2
5.900000E-8	1.131749E-2
5.905000E-8	1.143054E-2
5.910000E-8	1.157272E-2
5.915000E-8	1.175087E-2
5.920000E-8	1.196156E-2
5.925000E-8	1.219281E-2
5.930000E-8	1.242405E-2
5.935000E-8	1.265530E-2
5.940000E-8	1.286257E-2
5.945000E-8	1.301845E-2
5.950000E-8	1.315035E-2
5.955000E-8	1.328224E-2
5.960000E-8	1.339016E-2
5.965000E-8	1.342784E-2
5.970000E-8	1.342270E-2
5.975000E-8	1.338331E-2
5.980000E-8	1.326854E-2
5.985000E-8	1.304243E-2
5.990000E-8	1.271354E-2
5.995000E-8	1.232470E-2
6.000000E-8	1.191531E-2
6.005000E-8	1.150763E-2
6.010000E-8	1.111707E-2
6.015000E-8	1.078134E-2
6.020000E-8	1.053467E-2
6.025000E-8	1.038051E-2
6.030000E-8	1.031199E-2
6.035000E-8	1.035995E-2
6.040000E-8	1.052439E-2
6.045000E-8	1.076421E-2
6.050000E-8	1.106740E-2
6.055000E-8	1.142198E-2
6.060000E-8	1.178855E-2
6.065000E-8	1.211572E-2
6.070000E-8	1.241378E-2
6.075000E-8	1.265873E-2
6.080000E-8	1.282146E-2
6.085000E-8	1.291053E-2
6.090000E-8	1.294993E-2
6.095000E-8	1.291396E-2
6.100000E-8	1.277864E-2
6.105000E-8	1.257479E-2
6.110000E-8	1.235896E-2
6.115000E-8	1.213114E-2
6.120000E-8	1.187762E-2
6.125000E-8	1.163096E-2
6.130000E-8	1.142540E-2
6.135000E-8	1.124383E-2
6.140000E-8	1.107768E-2
6.145000E-8	1.093207E-2
6.150000E-8	1.078990E-2
6.155000E-8	1.064773E-2
6.160000E-8	1.051925E-2
6.165000E-8	1.042162E-2
6.170000E-8	1.034796E-2
6.175000E-8	1.030685E-2
6.180000E-8	1.032055E-2
6.185000E-8	1.040277E-2
6.190000E-8	1.055009E-2
6.195000E-8	1.074365E-2
6.200000E-8	1.097147E-2
6.205000E-8	1.122499E-2
6.210000E-8	1.148193E-2
6.215000E-8	1.172688E-2
6.220000E-8	1.193929E-2
6.225000E-8	1.210887E-2
6.230000E-8	1.221679E-2
6.235000E-8	1.224248E-2
6.240000E-8	1.218767E-2
6.245000E-8	1.204892E-2
6.250000E-8	1.183137E-2
6.255000E-8	1.156929E-2
6.260000E-8	1.130207E-2
6.265000E-8	1.105198E-2
6.270000E-8	1.082416E-2
6.275000E-8	1.061689E-2
6.280000E-8	1.041990E-2
6.285000E-8	1.026060E-2
6.290000E-8	1.015440E-2
6.295000E-8	1.008245E-2
6.300000E-8	1.003792E-2
6.305000E-8	1.003449E-2
6.310000E-8	1.008930E-2
6.315000E-8	1.016125E-2
6.320000E-8	1.022120E-2
6.325000E-8	1.026060E-2
6.330000E-8	1.026916E-2
6.335000E-8	1.026916E-2
6.340000E-8	1.031884E-2
6.345000E-8	1.042333E-2
6.350000E-8	1.053124E-2
6.355000E-8	1.064601E-2
6.360000E-8	1.078476E-2
6.365000E-8	1.093207E-2
6.370000E-8	1.107082E-2
6.375000E-8	1.117531E-2
6.380000E-8	1.123013E-2
6.385000E-8	1.121642E-2
6.390000E-8	1.112906E-2
6.395000E-8	1.097319E-2
6.400000E-8	1.076763E-2
6.405000E-8	1.052439E-2
6.410000E-8	1.025375E-2
6.415000E-8	9.962545E-3
6.420000E-8	9.674770E-3
6.425000E-8	9.431531E-3
6.430000E-8	9.263662E-3
6.435000E-8	9.179727E-3
6.440000E-8	9.166023E-3
6.445000E-8	9.222551E-3
6.450000E-8	9.357874E-3
6.455000E-8	9.556576E-3
6.460000E-8	9.784398E-3
6.465000E-8	1.000366E-2
6.470000E-8	1.019722E-2
6.475000E-8	1.037537E-2
6.480000E-8	1.055009E-2
6.485000E-8	1.069397E-2
6.490000E-8	1.080874E-2
6.495000E-8	1.087897E-2
6.500000E-8	1.090124E-2
6.505000E-8	1.088411E-2
6.510000E-8	1.086013E-2
6.515000E-8	1.082587E-2
6.520000E-8	1.075735E-2
6.525000E-8	1.066485E-2
6.530000E-8	1.057064E-2
6.535000E-8	1.047472E-2
6.540000E-8	1.034453E-2
6.545000E-8	1.019893E-2
6.550000E-8	1.006190E-2
6.555000E-8	9.926573E-3
6.560000E-8	9.796389E-3
6.565000E-8	9.679908E-3
6.570000E-8	9.585696E-3
6.575000E-8	9.524030E-3
6.580000E-8	9.501762E-3
6.585000E-8	9.506901E-3
6.590000E-8	9.530882E-3
6.595000E-8	9.568567E-3
6.600000E-8	9.613103E-3
6.605000E-8	9.640511E-3
6.610000E-8	9.676483E-3
6.615000E-8	9.722732E-3
6.620000E-8	9.779260E-3
6.625000E-8	9.840926E-3
6.630000E-8	9.895740E-3
6.635000E-8	9.923147E-3
6.640000E-8	9.923147E-3
6.645000E-8	9.935138E-3
6.650000E-8	9.943703E-3
6.655000E-8	9.941990E-3
6.660000E-8	9.959119E-3
6.665000E-8	9.998517E-3
6.670000E-8	1.001393E-2
6.675000E-8	9.983101E-3
6.680000E-8	9.936851E-3
6.685000E-8	9.861481E-3
6.690000E-8	9.772408E-3
6.695000E-8	9.685047E-3
6.700000E-8	9.602826E-3
6.705000E-8	9.534308E-3
6.710000E-8	9.512039E-3
6.715000E-8	9.510326E-3
6.720000E-8	9.517178E-3
6.725000E-8	9.560002E-3
6.730000E-8	9.645649E-3
6.735000E-8	9.748426E-3
6.740000E-8	9.864907E-3
6.745000E-8	9.984814E-3
6.750000E-8	1.009273E-2
6.755000E-8	1.017666E-2
6.760000E-8	1.023148E-2
6.765000E-8	1.023662E-2
6.770000E-8	1.017495E-2
6.775000E-8	1.006704E-2
6.780000E-8	9.902592E-3
6.785000E-8	9.688473E-3
6.790000E-8	9.493197E-3
6.795000E-8	9.342457E-3
6.800000E-8	9.219125E-3
6.805000E-8	9.131764E-3
6.810000E-8	9.088941E-3
6.815000E-8	9.059821E-3
6.820000E-8	9.022136E-3
6.825000E-8	8.986164E-3
6.830000E-8	8.919359E-3
6.835000E-8	8.813156E-3
6.840000E-8	8.698388E-3
6.845000E-8	8.571630E-3
6.850000E-8	8.407187E-3
6.855000E-8	8.244456E-3
6.860000E-8	8.127976E-3
6.865000E-8	8.054319E-3
6.870000E-8	8.030338E-3
6.875000E-8	8.109133E-3
6.880000E-8	8.265012E-3
6.885000E-8	8.450010E-3
6.890000E-8	8.657277E-3
6.895000E-8	8.874822E-3
6.900000E-8	9.058108E-3
6.905000E-8	9.184866E-3
6.910000E-8	9.284217E-3
6.915000E-8	9.361300E-3
6.920000E-8	9.398985E-3
6.925000E-8	9.386994E-3
6.930000E-8	9.337318E-3
6.935000E-8	9.229403E-3
6.940000E-8	9.078663E-3
6.945000E-8	8.933062E-3
6.950000E-8	8.821720E-3
6.955000E-8	8.701814E-3
6.960000E-8	8.571630E-3
6.965000E-8	8.456862E-3
6.970000E-8	8.345520E-3
6.975000E-8	8.237605E-3
6.980000E-8	8.151957E-3
6.985000E-8	8.098856E-3
6.990000E-8	8.076587E-3
6.995000E-8	8.066310E-3
7.000000E-8	8.066310E-3
7.005000E-8	8.086865E-3
7.010000E-8	8.146818E-3
7.015000E-8	8.232466E-3
7.020000E-8	8.338669E-3
7.025000E-8	8.480843E-3
7.030000E-8	8.645287E-3
7.035000E-8	8.794313E-3
7.040000E-8	8.945053E-3
7.045000E-8	9.112922E-3
7.050000E-8	9.260236E-3
7.055000E-8	9.364726E-3
7.060000E-8	9.446947E-3
7.065000E-8	9.496623E-3
7.070000E-8	9.460651E-3
7.075000E-8	9.357874E-3
7.080000E-8	9.234541E-3
7.085000E-8	9.082089E-3
7.090000E-8	8.891951E-3
7.095000E-8	8.686397E-3
7.100000E-8	8.480843E-3
7.105000E-8	8.270151E-3
7.110000E-8	8.095430E-3
7.115000E-8	8.002930E-3
7.120000E-8	7.975523E-3
7.125000E-8	7.956681E-3
7.130000E-8	7.932699E-3
7.135000E-8	7.907005E-3
7.140000E-8	7.884737E-3
7.145000E-8	7.879598E-3
7.150000E-8	7.920709E-3
7.155000E-8	7.997792E-3
7.160000E-8	8.083439E-3
7.165000E-8	8.167374E-3
7.170000E-8	8.253021E-3
7.175000E-8	8.338669E-3
7.180000E-8	8.419177E-3
7.185000E-8	8.487695E-3
7.190000E-8	8.513389E-3
7.195000E-8	8.485982E-3
7.200000E-8	8.424316E-3
7.205000E-8	8.324965E-3
7.210000E-8	8.203346E-3
7.215000E-8	8.057745E-3
7.220000E-8	7.888163E-3
7.225000E-8	7.718581E-3
7.230000E-8	7.557563E-3
7.235000E-8	7.417101E-3
7.240000E-8	7.288630E-3
7.245000E-8	7.182427E-3
7.250000E-8	7.093354E-3
7.255000E-8	7.029975E-3
7.260000E-8	7.017984E-3
7.265000E-8	7.074511E-3
7.270000E-8	7.199557E-3
7.275000E-8	7.372565E-3
7.280000E-8	7.567841E-3
7.285000E-8	7.740849E-3
7.290000E-8	7.869320E-3
7.295000E-8	7.958394E-3
7.300000E-8	8.013208E-3
7.305000E-8	8.032051E-3
7.310000E-8	8.006356E-3
7.315000E-8	7.932699E-3
7.320000E-8	7.843626E-3
7.325000E-8	7.768256E-3
7.330000E-8	7.713442E-3
7.335000E-8	7.674044E-3
7.340000E-8	7.655202E-3
7.345000E-8	7.648350E-3
7.350000E-8	7.658627E-3
7.355000E-8	7.679183E-3
7.360000E-8	7.696312E-3
7.365000E-8	7.682609E-3
7.370000E-8	7.650063E-3
7.375000E-8	7.614091E-3
7.380000E-8	7.566128E-3
7.385000E-8	7.477055E-3
7.390000E-8	7.367426E-3
7.395000E-8	7.278352E-3
7.400000E-8	7.223538E-3
7.405000E-8	7.187566E-3
7.410000E-8	7.172150E-3
7.415000E-8	7.192705E-3
7.420000E-8	7.252658E-3
7.425000E-8	7.357148E-3
7.430000E-8	7.499323E-3
7.435000E-8	7.636359E-3
7.440000E-8	7.752840E-3
7.445000E-8	7.853904E-3
7.450000E-8	7.922422E-3
7.455000E-8	7.941264E-3
7.460000E-8	7.927561E-3
7.465000E-8	7.907005E-3
7.470000E-8	7.850478E-3
7.475000E-8	7.744275E-3
7.480000E-8	7.651776E-3
7.485000E-8	7.593535E-3
7.490000E-8	7.518165E-3
7.495000E-8	7.410250E-3
7.500000E-8	7.307473E-3
7.505000E-8	7.221825E-3
7.510000E-8	7.125900E-3
7.515000E-8	7.035114E-3
7.520000E-8	6.973447E-3
7.525000E-8	6.937475E-3
7.530000E-8	6.911781E-3
7.535000E-8	6.903216E-3
7.540000E-8	6.908355E-3
7.545000E-8	6.922059E-3
7.550000E-8	6.935762E-3
7.555000E-8	6.946040E-3
7.560000E-8	6.970021E-3
7.565000E-8	6.994003E-3
7.570000E-8	6.990577E-3
7.575000E-8	6.963170E-3
7.580000E-8	6.939188E-3
7.585000E-8	6.940901E-3
7.590000E-8	6.942614E-3
7.595000E-8	6.927198E-3
7.600000E-8	6.916920E-3
7.605000E-8	6.939188E-3
7.610000E-8	6.987151E-3
7.615000E-8	7.041965E-3
7.620000E-8	7.081363E-3
7.625000E-8	7.079650E-3
7.630000E-8	7.047104E-3
7.635000E-8	7.004280E-3
7.640000E-8	6.946040E-3
7.645000E-8	6.850115E-3
7.650000E-8	6.749051E-3
7.655000E-8	6.665116E-3
7.660000E-8	6.589747E-3
7.665000E-8	6.543497E-3
7.670000E-8	6.540071E-3
7.675000E-8	6.557201E-3
7.680000E-8	6.591460E-3
7.685000E-8	6.658265E-3
7.690000E-8	6.733634E-3
7.695000E-8	6.819282E-3
7.700000E-8	6.923772E-3
7.705000E-8	7.048817E-3
7.710000E-8	7.168724E-3
7.715000E-8	7.274927E-3
7.720000E-8	7.379417E-3
7.725000E-8	7.482194E-3
7.730000E-8	7.576406E-3
7.735000E-8	7.634646E-3
7.740000E-8	7.626081E-3
7.745000E-8	7.564415E-3
7.750000E-8	7.463351E-3
7.755000E-8	7.310899E-3
7.760000E-8	7.137891E-3
7.765000E-8	6.975160E-3
7.770000E-8	6.829560E-3
7.775000E-8	6.697662E-3
7.780000E-8	6.596598E-3
7.785000E-8	6.550349E-3
7.790000E-8	6.538358E-3
7.795000E-8	6.586321E-3
7.800000E-8	6.689098E-3
7.805000E-8	6.819282E-3
7.810000E-8	6.956318E-3
7.815000E-8	7.093354E-3
7.820000E-8	7.201270E-3
7.825000E-8	7.271501E-3
7.830000E-8	7.317750E-3
7.835000E-8	7.316037E-3
7.840000E-8	7.264649E-3
7.845000E-8	7.194418E-3
7.850000E-8	7.143029E-3
7.855000E-8	7.091641E-3
7.860000E-8	7.035114E-3
7.865000E-8	6.992290E-3
7.870000E-8	6.964883E-3
7.875000E-8	6.954605E-3
7.880000E-8	6.954605E-3
7.885000E-8	6.958031E-3
7.890000E-8	6.951179E-3
7.895000E-8	6.947753E-3
7.900000E-8	6.959744E-3
7.905000E-8	6.939188E-3
7.910000E-8	6.872383E-3
7.915000E-8	6.778171E-3
7.920000E-8	6.677107E-3
7.925000E-8	6.564052E-3
7.930000E-8	6.461275E-3
7.935000E-8	6.379054E-3
7.940000E-8	6.320813E-3
7.945000E-8	6.269425E-3
7.950000E-8	6.221462E-3
7.955000E-8	6.182064E-3
7.960000E-8	6.164935E-3
7.965000E-8	6.182064E-3
7.970000E-8	6.214611E-3
7.975000E-8	6.240305E-3
7.980000E-8	6.228314E-3
7.985000E-8	6.182064E-3
7.990000E-8	6.115259E-3
7.995000E-8	6.026186E-3
8.000000E-8	5.909705E-3
8.005000E-8	5.779521E-3
8.010000E-8	5.666466E-3
8.015000E-8	5.592810E-3
8.020000E-8	5.579106E-3
8.025000E-8	5.627069E-3
8.030000E-8	5.738410E-3
8.035000E-8	5.875446E-3
8.040000E-8	6.024473E-3
8.045000E-8	6.175213E-3
8.050000E-8	6.312249E-3
8.055000E-8	6.428729E-3
8.060000E-8	6.519516E-3
8.065000E-8	6.565765E-3
8.070000E-8	6.540071E-3
8.075000E-8	6.445859E-3
8.080000E-8	6.307110E-3
8.085000E-8	6.144380E-3
8.090000E-8	5.990214E-3
8.095000E-8	5.872020E-3
8.100000E-8	5.810354E-3
8.105000E-8	5.806928E-3
8.110000E-8	5.856604E-3
8.115000E-8	5.942251E-3
8.120000E-8	6.055306E-3
8.125000E-8	6.182064E-3
8.130000E-8	6.312249E-3
8.135000E-8	6.430442E-3
8.140000E-8	6.538358E-3
8.145000E-8	6.627431E-3
8.150000E-8	6.665116E-3
8.155000E-8	6.666829E-3
8.160000E-8	6.670255E-3
8.165000E-8	6.665116E-3
8.170000E-8	6.617154E-3
8.175000E-8	6.541784E-3
8.180000E-8	6.461275E-3
8.185000E-8	6.356785E-3
8.190000E-8	6.230027E-3
8.195000E-8	6.118685E-3
8.200000E-8	6.029612E-3
8.205000E-8	5.918270E-3
8.210000E-8	5.798364E-3
8.215000E-8	5.702438E-3
8.220000E-8	5.644198E-3
8.225000E-8	5.613365E-3
8.230000E-8	5.606513E-3
8.235000E-8	5.627069E-3
8.240000E-8	5.661328E-3
8.245000E-8	5.707577E-3
8.250000E-8	5.757253E-3
8.255000E-8	5.803502E-3
8.260000E-8	5.827484E-3
8.265000E-8	5.841187E-3
8.270000E-8	5.866882E-3
8.275000E-8	5.877159E-3
8.280000E-8	5.846326E-3
8.285000E-8	5.829197E-3
8.290000E-8	5.837761E-3
8.295000E-8	5.818919E-3
8.300000E-8	5.770956E-3
8.305000E-8	5.736697E-3
8.310000E-8	5.688735E-3
8.315000E-8	5.591097E-3
8.320000E-8	5.491746E-3
8.325000E-8	5.448922E-3
8.330000E-8	5.424941E-3
8.335000E-8	5.402672E-3
8.340000E-8	5.378691E-3
8.345000E-8	5.364987E-3
8.350000E-8	5.354710E-3
8.355000E-8	5.344432E-3
8.360000E-8	5.330728E-3
8.365000E-8	5.315312E-3
8.370000E-8	5.313599E-3
8.375000E-8	5.299895E-3
8.380000E-8	5.263923E-3
8.385000E-8	5.224525E-3
8.390000E-8	5.217674E-3
8.395000E-8	5.214248E-3
8.400000E-8	5.198831E-3
8.405000E-8	5.198831E-3
8.410000E-8	5.238229E-3
8.415000E-8	5.298182E-3
8.420000E-8	5.342719E-3
8.425000E-8	5.395820E-3
8.430000E-8	5.493459E-3
8.435000E-8	5.615078E-3
8.440000E-8	5.709290E-3
8.445000E-8	5.770956E-3
8.450000E-8	5.817206E-3
8.455000E-8	5.849752E-3
8.460000E-8	5.856604E-3
8.465000E-8	5.851465E-3
8.470000E-8	5.846326E-3
8.475000E-8	5.822345E-3
8.480000E-8	5.753827E-3
8.485000E-8	5.633920E-3
8.490000E-8	5.486607E-3
8.495000E-8	5.334154E-3
8.500000E-8	5.178276E-3
8.505000E-8	5.036101E-3
8.510000E-8	4.926472E-3
8.515000E-8	4.864806E-3
8.520000E-8	4.847676E-3
8.525000E-8	4.866519E-3
8.530000E-8	4.931611E-3
8.535000E-8	5.020684E-3
8.540000E-8	5.132026E-3
8.545000E-8	5.255358E-3
8.550000E-8	5.370126E-3
8.555000E-8	5.447209E-3
8.560000E-8	5.472903E-3
8.565000E-8	5.466051E-3
8.570000E-8	5.440357E-3
8.575000E-8	5.402672E-3
8.580000E-8	5.325589E-3
8.585000E-8	5.234803E-3
8.590000E-8	5.169711E-3
8.595000E-8	5.145730E-3
8.600000E-8	5.116610E-3
8.605000E-8	5.106332E-3
8.610000E-8	5.145730E-3
8.615000E-8	5.214248E-3
8.620000E-8	5.274201E-3
8.625000E-8	5.339293E-3
8.630000E-8	5.407811E-3
8.635000E-8	5.454061E-3
8.640000E-8	5.469477E-3
8.645000E-8	5.486607E-3
8.650000E-8	5.490033E-3
8.655000E-8	5.447209E-3
8.660000E-8	5.375265E-3
8.665000E-8	5.310173E-3
8.670000E-8	5.258784E-3
8.675000E-8	5.193692E-3
8.680000E-8	5.123461E-3
8.685000E-8	5.065221E-3
8.690000E-8	5.003555E-3
8.695000E-8	4.943602E-3
8.700000E-8	4.902491E-3
8.705000E-8	4.869945E-3
8.710000E-8	4.821982E-3
8.715000E-8	4.763742E-3
8.720000E-8	4.717492E-3
8.725000E-8	4.690085E-3
8.730000E-8	4.667817E-3
8.735000E-8	4.662678E-3
8.740000E-8	4.660965E-3
8.745000E-8	4.652400E-3
8.750000E-8	4.648974E-3
8.755000E-8	4.659252E-3
8.760000E-8	4.695224E-3
8.765000E-8	4.746612E-3
8.770000E-8	4.799714E-3
8.775000E-8	4.857954E-3
8.780000E-8	4.924759E-3
8.785000E-8	4.979574E-3
8.790000E-8	4.988138E-3
8.795000E-8	4.965870E-3
8.800000E-8	4.926472E-3
8.805000E-8	4.873371E-3
8.810000E-8	4.815130E-3
8.815000E-8	4.770594E-3
8.820000E-8	4.743186E-3
8.825000E-8	4.738048E-3
8.830000E-8	4.762029E-3
8.835000E-8	4.808279E-3
8.840000E-8	4.859667E-3
8.845000E-8	4.929898E-3
8.850000E-8	5.022397E-3
8.855000E-8	5.125174E-3
8.860000E-8	5.215961E-3
8.865000E-8	5.291330E-3
8.870000E-8	5.335867E-3
8.875000E-8	5.308460E-3
8.880000E-8	5.221099E-3
8.885000E-8	5.114897E-3
8.890000E-8	4.986425E-3
8.895000E-8	4.833973E-3
8.900000E-8	4.710640E-3
8.905000E-8	4.642122E-3
8.910000E-8	4.577030E-3
8.915000E-8	4.530781E-3
8.920000E-8	4.535919E-3
8.925000E-8	4.561614E-3
8.930000E-8	4.575317E-3
8.935000E-8	4.590734E-3
8.940000E-8	4.599299E-3
8.945000E-8	4.594160E-3
8.950000E-8	4.589021E-3
8.955000E-8	4.561614E-3
8.960000E-8	4.491383E-3
8.965000E-8	4.400596E-3
8.970000E-8	4.330365E-3
8.975000E-8	4.268699E-3
8.980000E-8	4.246431E-3
8.985000E-8	4.302958E-3
8.990000E-8	4.404022E-3
8.995000E-8	4.498235E-3
9.000000E-8	4.604437E-3
9.005000E-8	4.734622E-3
9.010000E-8	4.835686E-3
9.015000E-8	4.869945E-3
9.020000E-8	4.857954E-3
9.025000E-8	4.803140E-3
9.030000E-8	4.710640E-3
9.035000E-8	4.613002E-3
9.040000E-8	4.520503E-3
9.045000E-8	4.445133E-3
9.050000E-8	4.390319E-3
9.055000E-8	4.350921E-3
9.060000E-8	4.328653E-3
9.065000E-8	4.342356E-3
9.070000E-8	4.410874E-3
9.075000E-8	4.508512E-3
9.080000E-8	4.618141E-3
9.085000E-8	4.719205E-3
9.090000E-8	4.792862E-3
9.095000E-8	4.813417E-3
9.100000E-8	4.786010E-3
9.105000E-8	4.720918E-3
9.110000E-8	4.633558E-3
9.115000E-8	4.529068E-3
9.120000E-8	4.412587E-3
9.125000E-8	4.304671E-3
9.130000E-8	4.239579E-3
9.135000E-8	4.200181E-3
9.140000E-8	4.167635E-3
9.145000E-8	4.153932E-3
9.150000E-8	4.153932E-3
9.155000E-8	4.160783E-3
9.160000E-8	4.169348E-3
9.165000E-8	4.179626E-3
9.170000E-8	4.162496E-3
9.175000E-8	4.104256E-3
9.180000E-8	4.025460E-3
9.185000E-8	3.958655E-3
9.190000E-8	3.915832E-3
9.195000E-8	3.893563E-3
9.200000E-8	3.891850E-3
9.205000E-8	3.932961E-3
9.210000E-8	4.015183E-3
9.215000E-8	4.104256E-3
9.220000E-8	4.177913E-3
9.225000E-8	4.256709E-3
9.230000E-8	4.335504E-3
9.235000E-8	4.374902E-3
9.240000E-8	4.350921E-3
9.245000E-8	4.285829E-3
9.250000E-8	4.189904E-3
9.255000E-8	4.056293E-3
9.260000E-8	3.917544E-3
9.265000E-8	3.799351E-3
9.270000E-8	3.698287E-3
9.275000E-8	3.597223E-3
9.280000E-8	3.520140E-3
9.285000E-8	3.496159E-3
9.290000E-8	3.516714E-3
9.295000E-8	3.573242E-3
9.300000E-8	3.653750E-3
9.305000E-8	3.706852E-3
9.310000E-8	3.741111E-3
9.315000E-8	3.804490E-3
9.320000E-8	3.895276E-3
9.325000E-8	3.967220E-3
9.330000E-8	4.022034E-3
9.335000E-8	4.099117E-3
9.340000E-8	4.184765E-3
9.345000E-8	4.253283E-3
9.350000E-8	4.314949E-3
9.355000E-8	4.362912E-3
9.360000E-8	4.380041E-3
9.365000E-8	4.366337E-3
9.370000E-8	4.344069E-3
9.375000E-8	4.299532E-3
9.380000E-8	4.232727E-3
9.385000E-8	4.165922E-3
9.390000E-8	4.100830E-3
9.395000E-8	4.042590E-3
9.400000E-8	4.028886E-3
9.405000E-8	4.071710E-3
9.410000E-8	4.150506E-3
9.415000E-8	4.244718E-3
9.420000E-8	4.364624E-3
9.425000E-8	4.477679E-3
9.430000E-8	4.549623E-3
9.435000E-8	4.594160E-3
9.440000E-8	4.601012E-3
9.445000E-8	4.529068E-3
9.450000E-8	4.404022E-3
9.455000E-8	4.299532E-3
9.460000E-8	4.212172E-3
9.465000E-8	4.121386E-3
9.470000E-8	4.064858E-3
9.475000E-8	4.064858E-3
9.480000E-8	4.099117E-3
9.485000E-8	4.176200E-3
9.490000E-8	4.292681E-3
9.495000E-8	4.400596E-3
9.500000E-8	4.474253E-3
9.505000E-8	4.515364E-3
9.510000E-8	4.517077E-3
9.515000E-8	4.469114E-3
9.520000E-8	4.392032E-3
9.525000E-8	4.285829E-3
9.530000E-8	4.157357E-3
9.535000E-8	4.035738E-3
9.540000E-8	3.950091E-3
9.545000E-8	3.878147E-3
9.550000E-8	3.807916E-3
9.555000E-8	3.754814E-3
9.560000E-8	3.737685E-3
9.565000E-8	3.746249E-3
9.570000E-8	3.758240E-3
9.575000E-8	3.758240E-3
9.580000E-8	3.744537E-3
9.585000E-8	3.725694E-3
9.590000E-8	3.711990E-3
9.595000E-8	3.689722E-3
9.600000E-8	3.657176E-3
9.605000E-8	3.631482E-3
9.610000E-8	3.605788E-3
9.615000E-8	3.583519E-3
9.620000E-8	3.559538E-3
9.625000E-8	3.542408E-3
9.630000E-8	3.552686E-3
9.635000E-8	3.581806E-3
9.640000E-8	3.633195E-3
9.645000E-8	3.694861E-3
9.650000E-8	3.766805E-3
9.655000E-8	3.828471E-3
9.660000E-8	3.874721E-3
9.665000E-8	3.915832E-3
9.670000E-8	3.960368E-3
9.675000E-8	3.974072E-3
9.680000E-8	3.948378E-3
9.685000E-8	3.922683E-3
9.690000E-8	3.908980E-3
9.695000E-8	3.869582E-3
9.700000E-8	3.821619E-3
9.705000E-8	3.814767E-3
9.710000E-8	3.821619E-3
9.715000E-8	3.813055E-3
9.720000E-8	3.789073E-3
9.725000E-8	3.754814E-3
9.730000E-8	3.701713E-3
9.735000E-8	3.640047E-3
9.740000E-8	3.569816E-3
9.745000E-8	3.484168E-3
9.750000E-8	3.408798E-3
9.755000E-8	3.376252E-3
9.760000E-8	3.379678E-3
9.765000E-8	3.388243E-3
9.770000E-8	3.412224E-3
9.775000E-8	3.443057E-3
9.780000E-8	3.484168E-3
9.785000E-8	3.537270E-3
9.790000E-8	3.592084E-3
9.795000E-8	3.643472E-3
9.800000E-8	3.720555E-3
9.805000E-8	3.814767E-3
9.810000E-8	3.907267E-3
9.815000E-8	3.991201E-3
9.820000E-8	4.071710E-3
9.825000E-8	4.119673E-3
9.830000E-8	4.138515E-3
9.835000E-8	4.129950E-3
9.840000E-8	4.107682E-3
9.845000E-8	4.068284E-3
9.850000E-8	4.020321E-3
9.855000E-8	3.962081E-3
9.860000E-8	3.900415E-3
9.865000E-8	3.840462E-3
9.870000E-8	3.778796E-3
9.875000E-8	3.727407E-3
9.880000E-8	3.718842E-3
9.885000E-8	3.727407E-3
9.890000E-8	3.729120E-3
9.895000E-8	3.729120E-3
9.900000E-8	3.713703E-3
9.905000E-8	3.694861E-3
9.910000E-8	3.686296E-3
9.915000E-8	3.684583E-3
9.920000E-8	3.686296E-3
9.925000E-8	3.693148E-3
9.930000E-8	3.708565E-3
9.935000E-8	3.720555E-3
9.940000E-8	3.737685E-3
9.945000E-8	3.741111E-3
9.950000E-8	3.722268E-3
9.955000E-8	3.703426E-3
9.960000E-8	3.701713E-3
9.965000E-8	3.715416E-3
9.970000E-8	3.729120E-3
9.975000E-8	3.742824E-3
9.980000E-8	3.753101E-3
9.985000E-8	3.758240E-3
9.990000E-8	3.765092E-3
9.995000E-8	3.765092E-3
1.000000E-7	3.753101E-3
1.000500E-7	3.758240E-3
1.001000E-7	3.783934E-3
1.001500E-7	3.797638E-3
1.002000E-7	3.787360E-3
1.002500E-7	3.753101E-3
1.003000E-7	3.717129E-3
1.003500E-7	3.689722E-3
1.004000E-7	3.679444E-3
1.004500E-7	3.665741E-3
1.005000E-7	3.638334E-3
1.005500E-7	3.571529E-3
1.006000E-7	3.501298E-3
1.006500E-7	3.449909E-3
1.007000E-7	3.420789E-3
1.007500E-7	3.391669E-3
1.008000E-7	3.364262E-3
1.008500E-7	3.345419E-3
1.009000E-7	3.330003E-3
1.009500E-7	3.304308E-3
1.010000E-7	3.268336E-3
1.010500E-7	3.225513E-3
1.011000E-7	3.189541E-3
1.011500E-7	3.165559E-3
1.012000E-7	3.146717E-3
1.012500E-7	3.121023E-3
1.013000E-7	3.067921E-3
1.013500E-7	3.001116E-3
1.014000E-7	2.966857E-3
1.014500E-7	2.951441E-3
1.015000E-7	2.903478E-3
1.015500E-7	2.864080E-3
1.016000E-7	2.870932E-3
1.016500E-7	2.894913E-3
1.017000E-7	2.900052E-3
1.017500E-7	2.930885E-3
1.018000E-7	2.990839E-3
1.018500E-7	3.055931E-3
1.019000E-7	3.133013E-3
1.019500E-7	3.239216E-3
1.020000E-7	3.340280E-3
1.020500E-7	3.420789E-3
1.021000E-7	3.482455E-3
1.021500E-7	3.525279E-3
1.022000E-7	3.545834E-3
1.022500E-7	3.559538E-3
1.023000E-7	3.554399E-3
1.023500E-7	3.515001E-3
1.024000E-7	3.461900E-3
1.024500E-7	3.407085E-3
1.025000E-7	3.343706E-3
1.025500E-7	3.271762E-3
1.026000E-7	3.223800E-3
1.026500E-7	3.189541E-3
1.027000E-7	3.155282E-3
1.027500E-7	3.115884E-3
1.028000E-7	3.064495E-3
1.028500E-7	2.995977E-3
1.029000E-7	2.932598E-3
1.029500E-7	2.891487E-3
1.030000E-7	2.865793E-3
1.030500E-7	2.838386E-3
1.031000E-7	2.822969E-3
1.031500E-7	2.809266E-3
1.032000E-7	2.786997E-3
1.032500E-7	2.775007E-3
1.033000E-7	2.786997E-3
1.033500E-7	2.804127E-3
1.034000E-7	2.834960E-3
1.034500E-7	2.894913E-3
1.035000E-7	2.975422E-3
1.035500E-7	3.042227E-3
1.036000E-7	3.074773E-3
1.036500E-7	3.073060E-3
1.037000E-7	3.061069E-3
1.037500E-7	3.042227E-3
1.038000E-7	3.009681E-3
1.038500E-7	2.971996E-3
1.039000E-7	2.958292E-3
1.039500E-7	2.963431E-3
1.040000E-7	2.973709E-3
1.040500E-7	2.980561E-3
1.041000E-7	2.973709E-3
1.041500E-7	2.949728E-3
1.042000E-7	2.958292E-3
1.042500E-7	3.007968E-3
1.043000E-7	3.030236E-3
1.043500E-7	3.014820E-3
1.044000E-7	3.011394E-3
1.044500E-7	3.006255E-3
1.045000E-7	2.960005E-3
1.045500E-7	2.876071E-3
1.046000E-7	2.780146E-3
1.046500E-7	2.679082E-3
1.047000E-7	2.579730E-3
1.047500E-7	2.506074E-3
1.048000E-7	2.487231E-3
1.048500E-7	2.519777E-3
1.049000E-7	2.584869E-3
1.049500E-7	2.658526E-3
1.050000E-7	2.754451E-3
1.050500E-7	2.879497E-3
1.051000E-7	3.007968E-3
1.051500E-7	3.117597E-3
1.052000E-7	3.182689E-3
1.052500E-7	3.184402E-3
1.053000E-7	3.129587E-3
1.053500E-7	3.047366E-3
1.054000E-7	2.966857E-3
1.054500E-7	2.857228E-3
1.055000E-7	2.723618E-3
1.055500E-7	2.619128E-3
1.056000E-7	2.560888E-3
1.056500E-7	2.526629E-3
1.057000E-7	2.533481E-3
1.057500E-7	2.574592E-3
1.058000E-7	2.637971E-3
1.058500E-7	2.715054E-3
1.059000E-7	2.793849E-3
1.059500E-7	2.850377E-3
1.060000E-7	2.886349E-3
1.060500E-7	2.930885E-3
1.061000E-7	2.954867E-3
1.061500E-7	2.946302E-3
1.062000E-7	2.932598E-3
1.062500E-7	2.930885E-3
1.063000E-7	2.917182E-3
1.063500E-7	2.881210E-3
1.064000E-7	2.829821E-3
1.064500E-7	2.773294E-3
1.065000E-7	2.733896E-3
1.065500E-7	2.725331E-3
1.066000E-7	2.732183E-3
1.066500E-7	2.749313E-3
1.067000E-7	2.786997E-3
1.067500E-7	2.841812E-3
1.068000E-7	2.903478E-3
1.068500E-7	2.971996E-3
1.069000E-7	3.049079E-3
1.069500E-7	3.134726E-3
1.070000E-7	3.247781E-3
1.070500E-7	3.371113E-3
1.071000E-7	3.446483E-3
1.071500E-7	3.489307E-3
1.072000E-7	3.520140E-3
1.072500E-7	3.511575E-3
1.073000E-7	3.446483E-3
1.073500E-7	3.352271E-3
1.074000E-7	3.256346E-3
1.074500E-7	3.145004E-3
1.075000E-7	3.014820E-3
1.075500E-7	2.901765E-3
1.076000E-7	2.809266E-3
1.076500E-7	2.733896E-3
1.077000E-7	2.679082E-3
1.077500E-7	2.644823E-3
1.078000E-7	2.636258E-3
1.078500E-7	2.651674E-3
1.079000E-7	2.689359E-3
1.079500E-7	2.716767E-3
1.080000E-7	2.723618E-3
1.080500E-7	2.709915E-3
1.081000E-7	2.699637E-3
1.081500E-7	2.694498E-3
1.082000E-7	2.673943E-3
1.082500E-7	2.617415E-3
1.083000E-7	2.533481E-3
1.083500E-7	2.449546E-3
1.084000E-7	2.377602E-3
1.084500E-7	2.324501E-3
1.085000E-7	2.295381E-3
1.085500E-7	2.273112E-3
1.086000E-7	2.271399E-3
1.086500E-7	2.319362E-3
1.087000E-7	2.394732E-3
1.087500E-7	2.444407E-3
1.088000E-7	2.475241E-3
1.088500E-7	2.511212E-3
1.089000E-7	2.555749E-3
1.089500E-7	2.601999E-3
1.090000E-7	2.649961E-3
1.090500E-7	2.694498E-3
1.091000E-7	2.740748E-3
1.091500E-7	2.804127E-3
1.092000E-7	2.858941E-3
1.092500E-7	2.891487E-3
1.093000E-7	2.924033E-3
1.093500E-7	2.951441E-3
1.094000E-7	2.951441E-3
1.094500E-7	2.929172E-3
1.095000E-7	2.900052E-3
1.095500E-7	2.845238E-3
1.096000E-7	2.763016E-3
1.096500E-7	2.680795E-3
1.097000E-7	2.612277E-3
1.097500E-7	2.560888E-3
1.098000E-7	2.526629E-3
1.098500E-7	2.507787E-3
1.099000E-7	2.490657E-3
1.099500E-7	2.478666E-3
1.100000E-7	2.470102E-3
1.100500E-7	2.456398E-3
1.101000E-7	2.437556E-3
1.101500E-7	2.423852E-3
1.102000E-7	2.410148E-3
1.102500E-7	2.396445E-3
1.103000E-7	2.379315E-3
1.103500E-7	2.343343E-3
1.104000E-7	2.291955E-3
1.104500E-7	2.266261E-3
1.105000E-7	2.283390E-3
1.105500E-7	2.314223E-3
1.106000E-7	2.365612E-3
1.106500E-7	2.447833E-3
1.107000E-7	2.545471E-3
1.107500E-7	2.656813E-3
1.108000E-7	2.775007E-3
1.108500E-7	2.888062E-3
1.109000E-7	2.973709E-3
1.109500E-7	3.035375E-3
1.110000E-7	3.079912E-3
1.110500E-7	3.091903E-3
1.111000E-7	3.086764E-3
1.111500E-7	3.081625E-3
1.112000E-7	3.059357E-3
1.112500E-7	3.021672E-3
1.113000E-7	2.985700E-3
1.113500E-7	2.932598E-3
1.114000E-7	2.834960E-3
1.114500E-7	2.725331E-3
1.115000E-7	2.607138E-3
1.115500E-7	2.446120E-3
1.116000E-7	2.240566E-3
1.116500E-7	2.060707E-3
1.117000E-7	1.935661E-3
1.117500E-7	1.831171E-3
1.118000E-7	1.731820E-3
1.118500E-7	1.678719E-3
1.119000E-7	1.694135E-3
1.119500E-7	1.747237E-3
1.120000E-7	1.836310E-3
1.120500E-7	1.966494E-3
1.121000E-7	2.122373E-3
1.121500E-7	2.264548E-3
1.122000E-7	2.351908E-3
1.122500E-7	2.379315E-3
1.123000E-7	2.362186E-3
1.123500E-7	2.310797E-3
1.124000E-7	2.218298E-3
1.124500E-7	2.113808E-3
1.125000E-7	2.019596E-3
1.125500E-7	1.940800E-3
1.126000E-7	1.901402E-3
1.126500E-7	1.927097E-3
1.127000E-7	1.973346E-3
1.127500E-7	2.007605E-3
1.128000E-7	2.053855E-3
1.128500E-7	2.117234E-3
1.129000E-7	2.168622E-3
1.129500E-7	2.201169E-3
1.130000E-7	2.206307E-3
1.130500E-7	2.206307E-3
1.131000E-7	2.218298E-3
1.131500E-7	2.237140E-3
1.132000E-7	2.283390E-3
1.132500E-7	2.386167E-3
1.133000E-7	2.524916E-3
1.133500E-7	2.655100E-3
1.134000E-7	2.780146E-3
1.134500E-7	2.903478E-3
1.135000E-7	2.989126E-3
1.135500E-7	3.033662E-3
1.136000E-7	3.062782E-3
1.136500E-7	3.045653E-3
1.137000E-7	2.966857E-3
1.137500E-7	2.857228E-3
1.138000E-7	2.739035E-3
1.138500E-7	2.600286E-3
1.139000E-7	2.444407E-3
1.139500E-7	2.319362E-3
1.140000E-7	2.249131E-3
1.140500E-7	2.220011E-3
1.141000E-7	2.209733E-3
1.141500E-7	2.223437E-3
1.142000E-7	2.247418E-3
1.142500E-7	2.261122E-3
1.143000E-7	2.271399E-3
1.143500E-7	2.298807E-3
1.144000E-7	2.322788E-3
1.144500E-7	2.333066E-3
1.145000E-7	2.350195E-3
1.145500E-7	2.370751E-3
1.146000E-7	2.358760E-3
1.146500E-7	2.326214E-3
1.147000E-7	2.307371E-3
1.147500E-7	2.290242E-3
1.148000E-7	2.271399E-3
1.148500E-7	2.259409E-3
1.149000E-7	2.242279E-3
1.149500E-7	2.218298E-3
1.150000E-7	2.194317E-3
1.150500E-7	2.166910E-3
1.151000E-7	2.125799E-3
1.151500E-7	2.091540E-3
1.152000E-7	2.062420E-3
1.152500E-7	2.040151E-3
1.153000E-7	2.016170E-3
1.153500E-7	1.987050E-3
1.154000E-7	1.945939E-3
1.154500E-7	1.909967E-3
1.155000E-7	1.894550E-3
1.155500E-7	1.913393E-3
1.156000E-7	1.968207E-3
1.156500E-7	2.050429E-3
1.157000E-7	2.146354E-3
1.157500E-7	2.249131E-3
1.158000E-7	2.360473E-3
1.158500E-7	2.459824E-3
1.159000E-7	2.535194E-3
1.159500E-7	2.583156E-3
1.160000E-7	2.619128E-3
1.160500E-7	2.619128E-3
1.161000E-7	2.542046E-3
1.161500E-7	2.415287E-3
1.162000E-7	2.300520E-3
1.162500E-7	2.196030E-3
1.163000E-7	2.079549E-3
1.163500E-7	1.973346E-3
1.164000E-7	1.903115E-3
1.164500E-7	1.868856E-3
1.165000E-7	1.880847E-3
1.165500E-7	1.932235E-3
1.166000E-7	1.978485E-3
1.166500E-7	2.026448E-3
1.167000E-7	2.098392E-3
1.167500E-7	2.153206E-3
1.168000E-7	2.170335E-3
1.168500E-7	2.165197E-3
1.169000E-7	2.139502E-3
1.169500E-7	2.084688E-3
1.170000E-7	2.004179E-3
1.170500E-7	1.894550E-3
1.171000E-7	1.748950E-3
1.171500E-7	1.603349E-3
1.172000E-7	1.514276E-3
1.172500E-7	1.478304E-3
1.173000E-7	1.466313E-3
1.173500E-7	1.462887E-3
1.174000E-7	1.483442E-3
1.174500E-7	1.526266E-3
1.175000E-7	1.587932E-3
1.175500E-7	1.661589E-3
1.176000E-7	1.748950E-3
1.176500E-7	1.851727E-3
1.177000E-7	1.949365E-3
1.177500E-7	2.021309E-3
1.178000E-7	2.093253E-3
1.178500E-7	2.166910E-3
1.179000E-7	2.240566E-3
1.179500E-7	2.278251E-3
1.180000E-7	2.269687E-3
1.180500E-7	2.230289E-3
1.181000E-7	2.194317E-3
1.181500E-7	2.144641E-3
1.182000E-7	2.072697E-3
1.182500E-7	2.026448E-3
1.183000E-7	2.038438E-3
1.183500E-7	2.072697E-3
1.184000E-7	2.120660E-3
1.184500E-7	2.218298E-3
1.185000E-7	2.363899E-3
1.185500E-7	2.538620E-3
1.186000E-7	2.718479E-3
1.186500E-7	2.882923E-3
1.187000E-7	3.002829E-3
1.187500E-7	3.079912E-3
1.188000E-7	3.109032E-3
1.188500E-7	3.067921E-3
1.189000E-7	2.985700E-3
1.189500E-7	2.879497E-3
1.190000E-7	2.699637E-3
1.190500E-7	2.449546E-3
1.191000E-7	2.190891E-3
1.191500E-7	1.964781E-3
1.192000E-7	1.750663E-3
1.192500E-7	1.575942E-3
1.193000E-7	1.471452E-3
1.193500E-7	1.432054E-3
1.194000E-7	1.447471E-3
1.194500E-7	1.512563E-3
1.195000E-7	1.605062E-3
1.195500E-7	1.723255E-3
1.196000E-7	1.872282E-3
1.196500E-7	2.016170E-3
1.197000E-7	2.105243E-3
1.197500E-7	2.149780E-3
1.198000E-7	2.185752E-3
1.198500E-7	2.232002E-3
1.199000E-7	2.271399E-3
1.199500E-7	2.290242E-3
1.200000E-7	2.286816E-3
1.200500E-7	2.290242E-3
1.201000E-7	2.317649E-3
1.201500E-7	2.329640E-3
1.202000E-7	2.327927E-3
1.202500E-7	2.353621E-3
1.203000E-7	2.379315E-3
1.203500E-7	2.343343E-3
1.204000E-7	2.243992E-3
1.204500E-7	2.127512E-3
1.205000E-7	2.009318E-3
1.205500E-7	1.896263E-3
1.206000E-7	1.815755E-3
1.206500E-7	1.767792E-3
1.207000E-7	1.724968E-3
1.207500E-7	1.690709E-3
1.208000E-7	1.653025E-3
1.208500E-7	1.606775E-3
1.209000E-7	1.586219E-3
1.209500E-7	1.622191E-3
1.210000E-7	1.697561E-3
1.210500E-7	1.779783E-3
1.211000E-7	1.880847E-3
1.211500E-7	1.992189E-3
1.212000E-7	2.070984E-3
1.212500E-7	2.101817E-3
1.213000E-7	2.112095E-3
1.213500E-7	2.122373E-3
1.214000E-7	2.100104E-3
1.214500E-7	2.005892E-3
1.215000E-7	1.860291E-3
1.215500E-7	1.718117E-3
1.216000E-7	1.613627E-3
1.216500E-7	1.557099E-3
1.217000E-7	1.563951E-3
1.217500E-7	1.649599E-3
1.218000E-7	1.786635E-3
1.218500E-7	1.951078E-3
1.219000E-7	2.127512E-3
1.219500E-7	2.303946E-3
1.220000E-7	2.439269E-3
1.220500E-7	2.514638E-3
1.221000E-7	2.559175E-3
1.221500E-7	2.572879E-3
1.222000E-7	2.521490E-3
1.222500E-7	2.411861E-3
1.223000E-7	2.305658E-3
1.223500E-7	2.202881E-3
1.224000E-7	2.077836E-3
1.224500E-7	1.957930E-3
1.225000E-7	1.863717E-3
1.225500E-7	1.771218E-3
1.226000E-7	1.666728E-3
1.226500E-7	1.610201E-3
1.227000E-7	1.598210E-3
1.227500E-7	1.603349E-3
1.228000E-7	1.625617E-3
1.228500E-7	1.675293E-3
1.229000E-7	1.735246E-3
1.229500E-7	1.796912E-3
1.230000E-7	1.822607E-3
1.230500E-7	1.810616E-3
1.231000E-7	1.791773E-3
1.231500E-7	1.784922E-3
1.232000E-7	1.748950E-3
1.232500E-7	1.688996E-3
1.233000E-7	1.646173E-3
1.233500E-7	1.620478E-3
1.234000E-7	1.591358E-3
1.234500E-7	1.596497E-3
1.235000E-7	1.680432E-3
1.235500E-7	1.800338E-3
1.236000E-7	1.921958E-3
1.236500E-7	2.060707E-3
1.237000E-7	2.211446E-3
1.237500E-7	2.315936E-3
1.238000E-7	2.333066E-3
1.238500E-7	2.298807E-3
1.239000E-7	2.252557E-3
1.239500E-7	2.185752E-3
1.240000E-7	2.082975E-3
1.240500E-7	1.961356E-3
1.241000E-7	1.853440E-3
1.241500E-7	1.757514E-3
1.242000E-7	1.670154E-3
1.242500E-7	1.608488E-3
1.243000E-7	1.581081E-3
1.243500E-7	1.567377E-3
1.244000E-7	1.563951E-3
1.244500E-7	1.575942E-3
1.245000E-7	1.603349E-3
1.245500E-7	1.623904E-3
1.246000E-7	1.635895E-3
1.246500E-7	1.642747E-3
1.247000E-7	1.663302E-3
1.247500E-7	1.690709E-3
1.248000E-7	1.714691E-3
1.248500E-7	1.721543E-3
1.249000E-7	1.736959E-3
1.249500E-7	1.764366E-3
1.250000E-7	1.796912E-3
1.250500E-7	1.829458E-3
1.251000E-7	1.853440E-3
1.251500E-7	1.843162E-3
1.252000E-7	1.796912E-3
1.252500E-7	1.747237E-3
1.253000E-7	1.690709E-3
1.253500E-7	1.617053E-3
1.254000E-7	1.550248E-3
1.254500E-7	1.510850E-3
1.255000E-7	1.468026E-3
1.255500E-7	1.430341E-3
1.256000E-7	1.435480E-3
1.256500E-7	1.480017E-3
1.257000E-7	1.551960E-3
1.257500E-7	1.647886E-3
1.258000E-7	1.754089E-3
1.258500E-7	1.850014E-3
1.259000E-7	1.927097E-3
1.259500E-7	1.956217E-3
1.260000E-7	1.923671E-3
1.260500E-7	1.856866E-3
1.261000E-7	1.774644E-3
1.261500E-7	1.673580E-3
1.262000E-7	1.558812E-3
1.262500E-7	1.468026E-3
1.263000E-7	1.378953E-3
1.263500E-7	1.296731E-3
1.264000E-7	1.247055E-3
1.264500E-7	1.238491E-3
1.265000E-7	1.271037E-3
1.265500E-7	1.327564E-3
1.266000E-7	1.414924E-3
1.266500E-7	1.515989E-3
1.267000E-7	1.623904E-3
1.267500E-7	1.735246E-3
1.268000E-7	1.822607E-3
1.268500E-7	1.867143E-3
1.269000E-7	1.879134E-3
1.269500E-7	1.863717E-3
1.270000E-7	1.839736E-3
1.270500E-7	1.808903E-3
1.271000E-7	1.754089E-3
1.271500E-7	1.668441E-3
1.272000E-7	1.574229E-3
1.272500E-7	1.492007E-3
1.273000E-7	1.425202E-3
1.273500E-7	1.380665E-3
1.274000E-7	1.363536E-3
1.274500E-7	1.372101E-3
1.275000E-7	1.421776E-3
1.275500E-7	1.514276E-3
1.276000E-7	1.618766E-3
1.276500E-7	1.721543E-3
1.277000E-7	1.826032E-3
1.277500E-7	1.923671E-3
1.278000E-7	1.995615E-3
1.278500E-7	2.057281E-3
1.279000E-7	2.106956E-3
1.279500E-7	2.124086E-3
1.280000E-7	2.100104E-3
1.280500E-7	2.035012E-3
1.281000E-7	1.930522E-3
1.281500E-7	1.820894E-3
1.282000E-7	1.714691E-3
1.282500E-7	1.586219E-3
1.283000E-7	1.444045E-3
1.283500E-7	1.308722E-3
1.284000E-7	1.168260E-3
1.284500E-7	1.027798E-3
1.285000E-7	9.352984E-4
1.285500E-7	8.993265E-4
1.286000E-7	8.856229E-4
1.286500E-7	9.130301E-4
1.287000E-7	1.005529E-3
1.287500E-7	1.144278E-3
1.288000E-7	1.300157E-3
1.288500E-7	1.480017E-3
1.289000E-7	1.677006E-3
1.289500E-7	1.865430E-3
1.290000E-7	2.026448E-3
1.290500E-7	2.142928E-3
1.291000E-7	2.208020E-3
1.291500E-7	2.225150E-3
1.292000E-7	2.214872E-3
1.292500E-7	2.175474E-3
1.293000E-7	2.094966E-3
1.293500E-7	1.999040E-3
1.294000E-7	1.925384E-3
1.294500E-7	1.882560E-3
1.295000E-7	1.860291E-3
1.295500E-7	1.856866E-3
1.296000E-7	1.867143E-3
1.296500E-7	1.872282E-3
1.297000E-7	1.880847E-3
1.297500E-7	1.911680E-3
1.298000E-7	1.945939E-3
1.298500E-7	1.949365E-3
1.299000E-7	1.920245E-3
1.299500E-7	1.848301E-3
1.300000E-7	1.726681E-3
1.300500E-7	1.587932E-3
1.301000E-7	1.468026E-3
1.301500E-7	1.358397E-3
1.302000E-7	1.241917E-3
1.302500E-7	1.151130E-3
1.303000E-7	1.101455E-3
1.303500E-7	1.077473E-3
1.304000E-7	1.063770E-3
1.304500E-7	1.074047E-3
1.305000E-7	1.122010E-3
1.305500E-7	1.183676E-3
1.306000E-7	1.245342E-3
1.306500E-7	1.336129E-3
1.307000E-7	1.449183E-3
1.307500E-7	1.569090E-3
1.308000E-7	1.663302E-3
1.308500E-7	1.719830E-3
1.309000E-7	1.742098E-3
1.309500E-7	1.740385E-3
1.310000E-7	1.714691E-3
1.310500E-7	1.635895E-3
1.311000E-7	1.517701E-3
1.311500E-7	1.394369E-3
1.312000E-7	1.272750E-3
1.312500E-7	1.125436E-3
1.313000E-7	9.644186E-4
1.313500E-7	8.239567E-4
1.314000E-7	7.211797E-4
1.314500E-7	6.492358E-4
1.315000E-7	6.081250E-4
1.315500E-7	6.184027E-4
1.316000E-7	6.920595E-4
1.316500E-7	8.359473E-4
1.317000E-7	1.003816E-3
1.317500E-7	1.147704E-3
1.318000E-7	1.277888E-3
1.318500E-7	1.408073E-3
1.319000E-7	1.515989E-3
1.319500E-7	1.558812E-3
1.320000E-7	1.529692E-3
1.320500E-7	1.459461E-3
1.321000E-7	1.366962E-3
1.321500E-7	1.262472E-3
1.322000E-7	1.178537E-3
1.322500E-7	1.130575E-3
1.323000E-7	1.104881E-3
1.323500E-7	1.096316E-3
1.324000E-7	1.140852E-3
1.324500E-7	1.245342E-3
1.325000E-7	1.368675E-3
1.325500E-7	1.474878E-3
1.326000E-7	1.553673E-3
1.326500E-7	1.598210E-3
1.327000E-7	1.617053E-3
1.327500E-7	1.603349E-3
1.328000E-7	1.538257E-3
1.328500E-7	1.442332E-3
1.329000E-7	1.368675E-3
1.329500E-7	1.322425E-3
1.330000E-7	1.276176E-3
1.330500E-7	1.229926E-3
1.331000E-7	1.216222E-3
1.331500E-7	1.233352E-3
1.332000E-7	1.259046E-3
1.332500E-7	1.298444E-3
1.333000E-7	1.341268E-3
1.333500E-7	1.344694E-3
1.334000E-7	1.269324E-3
1.334500E-7	1.161408E-3
1.335000E-7	1.072334E-3
1.335500E-7	9.986776E-4
1.336000E-7	9.198819E-4
1.336500E-7	8.633545E-4
1.337000E-7	8.530768E-4
1.337500E-7	9.010394E-4
1.338000E-7	9.866869E-4
1.338500E-7	1.099742E-3
1.339000E-7	1.257333E-3
1.339500E-7	1.459461E-3
1.340000E-7	1.659876E-3
1.340500E-7	1.812329E-3
1.341000E-7	1.916819E-3
1.341500E-7	1.975059E-3
1.342000E-7	1.969920E-3
1.342500E-7	1.908254E-3
1.343000E-7	1.831171E-3
1.343500E-7	1.747237E-3
1.344000E-7	1.647886E-3
1.344500E-7	1.560525E-3
1.345000E-7	1.510850E-3
1.345500E-7	1.517701E-3
1.346000E-7	1.563951E-3
1.346500E-7	1.641034E-3
1.347000E-7	1.716404E-3
1.347500E-7	1.791773E-3
1.348000E-7	1.863717E-3
1.348500E-7	1.897976E-3
1.349000E-7	1.867143E-3
1.349500E-7	1.786635E-3
1.350000E-7	1.692422E-3
1.350500E-7	1.587932E-3
1.351000E-7	1.485155E-3
1.351500E-7	1.406360E-3
1.352000E-7	1.377240E-3
1.352500E-7	1.396082E-3
1.353000E-7	1.445758E-3
1.353500E-7	1.492007E-3
1.354000E-7	1.545109E-3
1.354500E-7	1.623904E-3
1.355000E-7	1.721543E-3
1.355500E-7	1.812329E-3
1.356000E-7	1.885986E-3
1.356500E-7	1.957930E-3
1.357000E-7	2.019596E-3
1.357500E-7	2.050429E-3
1.358000E-7	2.064133E-3
1.358500E-7	2.079549E-3
1.359000E-7	2.093253E-3
1.359500E-7	2.077836E-3
1.360000E-7	2.038438E-3
1.360500E-7	1.992189E-3
1.361000E-7	1.935661E-3
1.361500E-7	1.880847E-3
1.362000E-7	1.819181E-3
1.362500E-7	1.771218E-3
1.363000E-7	1.742098E-3
1.363500E-7	1.718117E-3
1.364000E-7	1.682145E-3
1.364500E-7	1.653025E-3
1.365000E-7	1.661589E-3
1.365500E-7	1.707839E-3
1.366000E-7	1.772931E-3
1.366500E-7	1.838023E-3
1.367000E-7	1.889412E-3
1.367500E-7	1.916819E-3
1.368000E-7	1.928809E-3
1.368500E-7	1.916819E-3
1.369000E-7	1.867143E-3
1.369500E-7	1.790061E-3
1.370000E-7	1.716404E-3
1.370500E-7	1.637608E-3
1.371000E-7	1.553673E-3
1.371500E-7	1.483442E-3
1.372000E-7	1.426915E-3
1.372500E-7	1.375527E-3
1.373000E-7	1.320712E-3
1.373500E-7	1.276176E-3
1.374000E-7	1.238491E-3
1.374500E-7	1.207658E-3
1.375000E-7	1.202519E-3
1.375500E-7	1.236778E-3
1.376000E-7	1.300157E-3
1.376500E-7	1.368675E-3
1.377000E-7	1.420063E-3
1.377500E-7	1.456035E-3
1.378000E-7	1.490294E-3
1.378500E-7	1.521127E-3
1.379000E-7	1.536544E-3
1.379500E-7	1.551960E-3
1.380000E-7	1.562238E-3
1.380500E-7	1.546822E-3
1.381000E-7	1.509137E-3
1.381500E-7	1.492007E-3
1.382000E-7	1.495433E-3
1.382500E-7	1.483442E-3
1.383000E-7	1.462887E-3
1.383500E-7	1.437193E-3
1.384000E-7	1.384091E-3
1.384500E-7	1.298444E-3
1.385000E-7	1.205945E-3
1.385500E-7	1.113445E-3
1.386000E-7	1.015807E-3
1.386500E-7	9.318725E-4
1.387000E-7	8.787711E-4
1.387500E-7	8.547898E-4
1.388000E-7	8.770581E-4
1.388500E-7	9.301596E-4
1.389000E-7	1.010668E-3
1.389500E-7	1.115158E-3
1.390000E-7	1.241917E-3
1.390500E-7	1.387517E-3
1.391000E-7	1.551960E-3
1.391500E-7	1.733533E-3
1.392000E-7	1.904828E-3
1.392500E-7	2.052142E-3
1.393000E-7	2.189178E-3
1.393500E-7	2.298807E-3
1.394000E-7	2.357047E-3
1.394500E-7	2.374176E-3
1.395000E-7	2.350195E-3
1.395500E-7	2.290242E-3
1.396000E-7	2.185752E-3
1.396500E-7	2.060707E-3
1.397000E-7	1.930522E-3
1.397500E-7	1.812329E-3
1.398000E-7	1.695848E-3
1.398500E-7	1.613627E-3
1.399000E-7	1.569090E-3
1.399500E-7	1.531405E-3
1.400000E-7	1.492007E-3
1.400500E-7	1.478304E-3
1.401000E-7	1.485155E-3
1.401500E-7	1.457748E-3
1.402000E-7	1.394369E-3
1.402500E-7	1.332703E-3
1.403000E-7	1.253907E-3
1.403500E-7	1.147704E-3
1.404000E-7	1.041501E-3
1.404500E-7	9.558538E-4
1.405000E-7	8.924747E-4
1.405500E-7	8.479380E-4
1.406000E-7	8.188178E-4
1.406500E-7	8.016883E-4
1.407000E-7	8.342344E-4
1.407500E-7	9.147430E-4
1.408000E-7	9.952517E-4
1.408500E-7	1.065483E-3
1.409000E-7	1.147704E-3
1.409500E-7	1.236778E-3
1.410000E-7	1.313860E-3
1.410500E-7	1.384091E-3
1.411000E-7	1.438906E-3
1.411500E-7	1.492007E-3
1.412000E-7	1.574229E-3
1.412500E-7	1.649599E-3
1.413000E-7	1.673580E-3
1.413500E-7	1.651312E-3
1.414000E-7	1.605062E-3
1.414500E-7	1.538257E-3
1.415000E-7	1.469739E-3
1.415500E-7	1.447471E-3
1.416000E-7	1.464600E-3
1.416500E-7	1.498859E-3
1.417000E-7	1.550248E-3
1.417500E-7	1.623904E-3
1.418000E-7	1.700987E-3
1.418500E-7	1.791773E-3
1.419000E-7	1.908254E-3
1.419500E-7	2.024735E-3
1.420000E-7	2.096679E-3
1.420500E-7	2.130938E-3
1.421000E-7	2.125799E-3
1.421500E-7	2.069271E-3
1.422000E-7	1.976772E-3
1.422500E-7	1.868856E-3
1.423000E-7	1.742098E-3
1.423500E-7	1.617053E-3
1.424000E-7	1.522840E-3
1.424500E-7	1.468026E-3
1.425000E-7	1.454322E-3
1.425500E-7	1.485155E-3
1.426000E-7	1.553673E-3
1.426500E-7	1.653025E-3
1.427000E-7	1.766079E-3
1.427500E-7	1.838023E-3
1.428000E-7	1.832884E-3
1.428500E-7	1.755802E-3
1.429000E-7	1.651312E-3
1.429500E-7	1.510850E-3
1.430000E-7	1.349832E-3
1.430500E-7	1.188815E-3
1.431000E-7	1.056918E-3
1.431500E-7	9.729833E-4
1.432000E-7	9.524279E-4
1.432500E-7	9.849740E-4
1.433000E-7	1.070622E-3
1.433500E-7	1.212796E-3
1.434000E-7	1.389230E-3
1.434500E-7	1.565664E-3
1.435000E-7	1.724968E-3
1.435500E-7	1.865430E-3
1.436000E-7	1.971633E-3
1.436500E-7	2.014457E-3
1.437000E-7	1.983624E-3
1.437500E-7	1.875708E-3
1.438000E-7	1.714691E-3
1.438500E-7	1.515989E-3
1.439000E-7	1.301870E-3
1.439500E-7	1.087751E-3
1.440000E-7	8.821970E-4
1.440500E-7	7.057631E-4
1.441000E-7	5.841437E-4
1.441500E-7	5.293293E-4
1.442000E-7	5.361811E-4
1.442500E-7	5.961343E-4
1.443000E-7	6.869207E-4
1.443500E-7	7.828459E-4
1.444000E-7	8.650675E-4
1.444500E-7	9.181689E-4
1.445000E-7	9.421502E-4
1.445500E-7	9.215948E-4
1.446000E-7	8.445121E-4
1.446500E-7	7.417351E-4
1.447000E-7	6.389581E-4
1.447500E-7	5.481717E-4
1.448000E-7	4.745149E-4
1.448500E-7	4.351170E-4
1.449000E-7	4.453947E-4
1.449500E-7	4.882185E-4
1.450000E-7	5.464588E-4
1.450500E-7	6.338192E-4
1.451000E-7	7.605775E-4
1.451500E-7	8.941876E-4
1.452000E-7	1.017520E-3
1.452500E-7	1.134001E-3
1.453000E-7	1.247055E-3
1.453500E-7	1.313860E-3
1.454000E-7	1.336129E-3
1.454500E-7	1.336129E-3
1.455000E-7	1.324138E-3
1.455500E-7	1.298444E-3
1.456000E-7	1.250481E-3
1.456500E-7	1.195667E-3
1.457000E-7	1.149417E-3
1.457500E-7	1.104881E-3
1.458000E-7	1.032937E-3
1.458500E-7	9.764092E-4
1.459000E-7	9.609927E-4
1.459500E-7	9.558538E-4
1.460000E-7	9.387243E-4
1.460500E-7	9.147430E-4
1.461000E-7	9.164560E-4
1.461500E-7	9.558538E-4
1.462000E-7	1.010668E-3
1.462500E-7	1.077473E-3
1.463000E-7	1.152843E-3
1.463500E-7	1.252194E-3
1.464000E-7	1.368675E-3
1.464500E-7	1.469739E-3
1.465000E-7	1.551960E-3
1.465500E-7	1.635895E-3
1.466000E-7	1.700987E-3
1.466500E-7	1.726681E-3
1.467000E-7	1.716404E-3
1.467500E-7	1.690709E-3
1.468000E-7	1.630756E-3
1.468500E-7	1.529692E-3
1.469000E-7	1.404647E-3
1.469500E-7	1.265898E-3
1.470000E-7	1.123723E-3
1.470500E-7	9.918258E-4
1.471000E-7	8.907617E-4
1.471500E-7	8.273826E-4
1.472000E-7	8.188178E-4
1.472500E-7	8.565027E-4
1.473000E-7	9.147430E-4
1.473500E-7	9.935387E-4
1.474000E-7	1.111732E-3
1.474500E-7	1.245342E-3
1.475000E-7	1.337842E-3
1.475500E-7	1.387517E-3
1.476000E-7	1.421776E-3
1.476500E-7	1.445758E-3
1.477000E-7	1.428628E-3
1.477500E-7	1.375527E-3
1.478000E-7	1.298444E-3
1.478500E-7	1.207658E-3
1.479000E-7	1.106593E-3
1.479500E-7	1.026085E-3
1.480000E-7	9.764092E-4
1.480500E-7	9.558538E-4
1.481000E-7	9.627056E-4
1.481500E-7	9.935387E-4
1.482000E-7	1.038075E-3
1.482500E-7	1.077473E-3
1.483000E-7	1.125436E-3
1.483500E-7	1.176824E-3
1.484000E-7	1.204232E-3
1.484500E-7	1.205945E-3
1.485000E-7	1.188815E-3
1.485500E-7	1.142565E-3
1.486000E-7	1.050066E-3
1.486500E-7	9.490020E-4
1.487000E-7	8.770581E-4
1.487500E-7	8.136790E-4
1.488000E-7	7.640034E-4
1.488500E-7	7.588646E-4
1.489000E-7	8.068272E-4
1.489500E-7	8.839099E-4
1.490000E-7	9.644186E-4
1.490500E-7	1.019233E-3
1.491000E-7	1.056918E-3
1.491500E-7	1.091177E-3
1.492000E-7	1.122010E-3
1.492500E-7	1.111732E-3
1.493000E-7	1.087751E-3
1.493500E-7	1.079186E-3
1.494000E-7	1.068909E-3
1.494500E-7	1.043214E-3
1.495000E-7	1.053492E-3
1.495500E-7	1.111732E-3
1.496000E-7	1.175111E-3
1.496500E-7	1.233352E-3
1.497000E-7	1.296731E-3
1.497500E-7	1.351545E-3
1.498000E-7	1.375527E-3
1.498500E-7	1.380665E-3
1.499000E-7	1.365249E-3
1.499500E-7	1.336129E-3
1.500000E-7	1.308722E-3
1.500500E-7	1.284740E-3
1.501000E-7	1.265898E-3
1.501500E-7	1.291592E-3
1.502000E-7	1.384091E-3
1.502500E-7	1.497146E-3
1.503000E-7	1.606775E-3
1.503500E-7	1.738672E-3
1.504000E-7	1.887699E-3
1.504500E-7	2.004179E-3
1.505000E-7	2.088114E-3
1.505500E-7	2.154919E-3
1.506000E-7	2.168622E-3
1.506500E-7	2.101817E-3
1.507000E-7	2.000753E-3
1.507500E-7	1.884273E-3
1.508000E-7	1.733533E-3
1.508500E-7	1.569090E-3
1.509000E-7	1.435480E-3
1.509500E-7	1.353258E-3
1.510000E-7	1.310435E-3
1.510500E-7	1.303583E-3
1.511000E-7	1.341268E-3
1.511500E-7	1.420063E-3
1.512000E-7	1.521127E-3
1.512500E-7	1.625617E-3
1.513000E-7	1.719830E-3
1.513500E-7	1.776357E-3
1.514000E-7	1.774644E-3
1.514500E-7	1.714691E-3
1.515000E-7	1.618766E-3
1.515500E-7	1.481730E-3
1.516000E-7	1.312147E-3
1.516500E-7	1.137427E-3
1.517000E-7	9.712704E-4
1.517500E-7	8.205308E-4
1.518000E-7	7.006243E-4
1.518500E-7	6.149768E-4
1.519000E-7	5.567365E-4
1.519500E-7	5.396070E-4
1.520000E-7	5.464588E-4
1.520500E-7	5.447458E-4
1.521000E-7	5.310422E-4
1.521500E-7	5.413199E-4
1.522000E-7	5.670142E-4
1.522500E-7	5.909955E-4
1.523000E-7	6.115509E-4
1.523500E-7	6.560876E-4
1.524000E-7	7.263185E-4
1.524500E-7	8.085401E-4
1.525000E-7	9.027524E-4
1.525500E-7	1.000391E-3
1.526000E-7	1.101455E-3
1.526500E-7	1.187102E-3
1.527000E-7	1.264185E-3
1.527500E-7	1.344694E-3
1.528000E-7	1.411499E-3
1.528500E-7	1.430341E-3
1.529000E-7	1.433767E-3
1.529500E-7	1.435480E-3
1.530000E-7	1.432054E-3
1.530500E-7	1.402934E-3
1.531000E-7	1.354971E-3
1.531500E-7	1.305296E-3
1.532000E-7	1.274463E-3
1.532500E-7	1.260759E-3
1.533000E-7	1.250481E-3
1.533500E-7	1.221361E-3
1.534000E-7	1.192241E-3
1.534500E-7	1.190528E-3
1.535000E-7	1.190528E-3
1.535500E-7	1.176824E-3
1.536000E-7	1.132288E-3
1.536500E-7	1.070622E-3
1.537000E-7	1.005529E-3
1.537500E-7	9.558538E-4
1.538000E-7	9.507150E-4
1.538500E-7	9.952517E-4
1.539000E-7	1.051779E-3
1.539500E-7	1.103168E-3
1.540000E-7	1.171686E-3
1.540500E-7	1.238491E-3
1.541000E-7	1.279601E-3
1.541500E-7	1.272750E-3
1.542000E-7	1.241917E-3
1.542500E-7	1.197380E-3
1.543000E-7	1.134001E-3
1.543500E-7	1.055205E-3
1.544000E-7	9.609927E-4
1.544500E-7	8.736322E-4
1.545000E-7	7.931236E-4
1.545500E-7	6.954854E-4
1.546000E-7	5.909955E-4
1.546500E-7	5.139127E-4
1.547000E-7	4.847926E-4
1.547500E-7	4.899314E-4
1.548000E-7	5.139127E-4
1.548500E-7	5.567365E-4
1.549000E-7	6.235415E-4
1.549500E-7	7.006243E-4
1.550000E-7	7.674293E-4
1.550500E-7	8.068272E-4
1.551000E-7	8.102531E-4
1.551500E-7	8.016883E-4
1.552000E-7	7.914106E-4
1.552500E-7	7.708552E-4
1.553000E-7	7.280315E-4
1.553500E-7	6.852077E-4
1.554000E-7	6.869207E-4
1.554500E-7	7.177538E-4
1.555000E-7	7.725682E-4
1.555500E-7	8.633545E-4
1.556000E-7	9.746963E-4
1.556500E-7	1.068909E-3
1.557000E-7	1.147704E-3
1.557500E-7	1.202519E-3
1.558000E-7	1.233352E-3
1.558500E-7	1.257333E-3
1.559000E-7	1.274463E-3
1.559500E-7	1.257333E-3
1.560000E-7	1.197380E-3
1.560500E-7	1.128862E-3
1.561000E-7	1.087751E-3
1.561500E-7	1.079186E-3
1.562000E-7	1.106593E-3
1.562500E-7	1.163121E-3
1.563000E-7	1.260759E-3
1.563500E-7	1.399508E-3
1.564000E-7	1.555386E-3
1.564500E-7	1.697561E-3
1.565000E-7	1.829458E-3
1.565500E-7	1.944226E-3
1.566000E-7	2.016170E-3
1.566500E-7	2.058994E-3
1.567000E-7	2.088114E-3
1.567500E-7	2.069271E-3
1.568000E-7	1.976772E-3
1.568500E-7	1.850014E-3
1.569000E-7	1.718117E-3
1.569500E-7	1.574229E-3
1.570000E-7	1.421776E-3
1.570500E-7	1.283027E-3
1.571000E-7	1.163121E-3
1.571500E-7	1.043214E-3
1.572000E-7	9.301596E-4
1.572500E-7	8.513639E-4
1.573000E-7	8.034013E-4
1.573500E-7	7.794200E-4
1.574000E-7	7.777070E-4
1.574500E-7	8.034013E-4
1.575000E-7	8.445121E-4
1.575500E-7	9.113171E-4
1.576000E-7	9.952517E-4
1.576500E-7	1.072334E-3
1.577000E-7	1.115158E-3
1.577500E-7	1.127149E-3
1.578000E-7	1.101455E-3
1.578500E-7	1.041501E-3
1.579000E-7	9.764092E-4
1.579500E-7	9.113171E-4
1.580000E-7	8.582157E-4
1.580500E-7	8.119660E-4
1.581000E-7	7.999754E-4
1.581500E-7	8.308085E-4
1.582000E-7	8.804840E-4
1.582500E-7	8.993265E-4
1.583000E-7	8.941876E-4
1.583500E-7	8.976135E-4
1.584000E-7	8.804840E-4
1.584500E-7	8.325214E-4
1.585000E-7	8.034013E-4
1.585500E-7	7.965495E-4
1.586000E-7	7.794200E-4
1.586500E-7	7.502998E-4
1.587000E-7	7.400221E-4
1.587500E-7	7.451610E-4
1.588000E-7	7.622905E-4
1.588500E-7	8.119660E-4
1.589000E-7	8.856229E-4
1.589500E-7	9.472891E-4
1.590000E-7	9.918258E-4
1.590500E-7	1.029511E-3
1.591000E-7	1.051779E-3
1.591500E-7	1.043214E-3
1.592000E-7	9.969646E-4
1.592500E-7	9.130301E-4
1.593000E-7	8.085401E-4
1.593500E-7	7.091890E-4
1.594000E-7	6.389581E-4
1.594500E-7	6.064120E-4
1.595000E-7	6.046991E-4
1.595500E-7	5.961343E-4
1.596000E-7	5.670142E-4
1.596500E-7	5.550235E-4
1.597000E-7	5.584494E-4
1.597500E-7	5.670142E-4
1.598000E-7	5.653012E-4
1.598500E-7	5.687271E-4
1.599000E-7	6.064120E-4
1.599500E-7	6.800689E-4
1.600000E-7	7.742811E-4
1.600500E-7	8.770581E-4
1.601000E-7	9.986776E-4
1.601500E-7	1.125436E-3
1.602000E-7	1.212796E-3
1.602500E-7	1.252194E-3
1.603000E-7	1.257333E-3
1.603500E-7	1.226500E-3
1.604000E-7	1.163121E-3
1.604500E-7	1.091177E-3
1.605000E-7	1.017520E-3
1.605500E-7	9.318725E-4
1.606000E-7	8.479380E-4
1.606500E-7	7.931236E-4
1.607000E-7	7.794200E-4
1.607500E-7	8.171049E-4
1.608000E-7	8.976135E-4
1.608500E-7	9.952517E-4
1.609000E-7	1.104881E-3
1.609500E-7	1.224787E-3
1.610000E-7	1.320712E-3
1.610500E-7	1.344694E-3
1.611000E-7	1.318999E-3
1.611500E-7	1.284740E-3
1.612000E-7	1.223074E-3
1.612500E-7	1.127149E-3
1.613000E-7	1.053492E-3
1.613500E-7	1.026085E-3
1.614000E-7	1.017520E-3
1.614500E-7	1.039788E-3
1.615000E-7	1.108306E-3
1.615500E-7	1.190528E-3
1.616000E-7	1.269324E-3
1.616500E-7	1.348119E-3
1.617000E-7	1.416637E-3
1.617500E-7	1.438906E-3
1.618000E-7	1.411499E-3
1.618500E-7	1.360110E-3
1.619000E-7	1.308722E-3
1.619500E-7	1.257333E-3
1.620000E-7	1.214509E-3
1.620500E-7	1.176824E-3
1.621000E-7	1.168260E-3
1.621500E-7	1.176824E-3
1.622000E-7	1.190528E-3
1.622500E-7	1.229926E-3
1.623000E-7	1.301870E-3
1.623500E-7	1.368675E-3
1.624000E-7	1.408073E-3
1.624500E-7	1.423489E-3
1.625000E-7	1.418350E-3
1.625500E-7	1.382378E-3
1.626000E-7	1.330990E-3
1.626500E-7	1.274463E-3
1.627000E-7	1.205945E-3
1.627500E-7	1.125436E-3
1.628000E-7	1.044927E-3
1.628500E-7	9.798351E-4
1.629000E-7	9.250207E-4
1.629500E-7	8.993265E-4
1.630000E-7	8.976135E-4
1.630500E-7	8.941876E-4
1.631000E-7	9.061783E-4
1.631500E-7	9.695574E-4
1.632000E-7	1.056918E-3
1.632500E-7	1.108306E-3
1.633000E-7	1.127149E-3
1.633500E-7	1.125436E-3
1.634000E-7	1.086038E-3
1.634500E-7	1.002103E-3
1.635000E-7	9.096042E-4
1.635500E-7	8.256696E-4
1.636000E-7	7.434480E-4
1.636500E-7	6.646523E-4
1.637000E-7	6.132638E-4
1.637500E-7	5.892825E-4
1.638000E-7	6.012732E-4
1.638500E-7	6.509487E-4
1.639000E-7	7.211797E-4
1.639500E-7	7.811329E-4
1.640000E-7	8.136790E-4
1.640500E-7	7.965495E-4
1.641000E-7	7.126149E-4
1.641500E-7	5.841437E-4
1.642000E-7	4.453947E-4
1.642500E-7	3.100717E-4
1.643000E-7	1.833134E-4
1.643500E-7	8.396227E-5
1.644000E-7	3.599967E-5
1.644500E-7	4.799032E-5
1.645000E-7	1.267860E-4
1.645500E-7	2.740997E-4
1.646000E-7	4.710890E-4
1.646500E-7	6.800689E-4
1.647000E-7	8.599286E-4
1.647500E-7	1.007242E-3
1.648000E-7	1.115158E-3
1.648500E-7	1.154556E-3
1.649000E-7	1.125436E-3
1.649500E-7	1.058631E-3
1.650000E-7	9.798351E-4
1.650500E-7	8.787711E-4
1.651000E-7	7.657164E-4
1.651500E-7	6.766430E-4
1.652000E-7	6.389581E-4
1.652500E-7	6.423840E-4
1.653000E-7	6.749300E-4
1.653500E-7	7.314574E-4
1.654000E-7	8.034013E-4
1.654500E-7	8.633545E-4
1.655000E-7	9.113171E-4
1.655500E-7	9.472891E-4
1.656000E-7	9.524279E-4
1.656500E-7	9.335855E-4
1.657000E-7	9.284466E-4
1.657500E-7	9.387243E-4
1.658000E-7	9.490020E-4
1.658500E-7	9.935387E-4
1.659000E-7	1.070622E-3
1.659500E-7	1.113445E-3
1.660000E-7	1.101455E-3
1.660500E-7	1.082612E-3
1.661000E-7	1.067196E-3
1.661500E-7	1.024372E-3
1.662000E-7	9.575668E-4
1.662500E-7	8.856229E-4
1.663000E-7	8.102531E-4
1.663500E-7	7.485869E-4
1.664000E-7	7.091890E-4
1.664500E-7	6.783559E-4
1.665000E-7	6.543746E-4
1.665500E-7	6.663653E-4
1.666000E-7	7.211797E-4
1.666500E-7	8.188178E-4
1.667000E-7	9.404373E-4
1.667500E-7	1.048353E-3
1.668000E-7	1.139140E-3
1.668500E-7	1.231639E-3
1.669000E-7	1.317286E-3
1.669500E-7	1.361823E-3
1.670000E-7	1.397795E-3
1.670500E-7	1.447471E-3
1.671000E-7	1.488581E-3
1.671500E-7	1.517701E-3
1.672000E-7	1.550248E-3
1.672500E-7	1.593071E-3
1.673000E-7	1.610201E-3
1.673500E-7	1.606775E-3
1.674000E-7	1.581081E-3
1.674500E-7	1.531405E-3
1.675000E-7	1.457748E-3
1.675500E-7	1.368675E-3
1.676000E-7	1.265898E-3
1.676500E-7	1.154556E-3
1.677000E-7	1.041501E-3
1.677500E-7	9.472891E-4
1.678000E-7	8.650675E-4
1.678500E-7	8.051142E-4
1.679000E-7	7.622905E-4
1.679500E-7	7.074761E-4
1.680000E-7	6.303933E-4
1.680500E-7	5.790048E-4
1.681000E-7	5.790048E-4
1.681500E-7	6.046991E-4
1.682000E-7	6.235415E-4
1.682500E-7	6.509487E-4
1.683000E-7	6.886336E-4
1.683500E-7	7.143279E-4
1.684000E-7	7.383092E-4
1.684500E-7	7.759941E-4
1.685000E-7	8.171049E-4
1.685500E-7	8.308085E-4
1.686000E-7	8.051142E-4
1.686500E-7	7.759941E-4
1.687000E-7	7.468739E-4
1.687500E-7	7.091890E-4
1.688000E-7	6.646523E-4
1.688500E-7	6.201156E-4
1.689000E-7	5.738660E-4
1.689500E-7	5.396070E-4
1.690000E-7	5.310422E-4
1.690500E-7	5.241904E-4
1.691000E-7	5.036350E-4
1.691500E-7	5.121998E-4
1.692000E-7	5.670142E-4
1.692500E-7	6.338192E-4
1.693000E-7	6.971984E-4
1.693500E-7	7.674293E-4
1.694000E-7	8.462250E-4
1.694500E-7	9.267337E-4
1.695000E-7	1.007242E-3
1.695500E-7	1.068909E-3
1.696000E-7	1.099742E-3
1.696500E-7	1.118584E-3
1.697000E-7	1.118584E-3
1.697500E-7	1.103168E-3
1.698000E-7	1.096316E-3
1.698500E-7	1.120297E-3
1.699000E-7	1.161408E-3
1.699500E-7	1.214509E-3
1.700000E-7	1.276176E-3
1.700500E-7	1.334416E-3
1.701000E-7	1.387517E-3
1.701500E-7	1.421776E-3
1.702000E-7	1.426915E-3
1.702500E-7	1.411499E-3
1.703000E-7	1.384091E-3
1.703500E-7	1.336129E-3
1.704000E-7	1.243629E-3
1.704500E-7	1.103168E-3
1.705000E-7	9.592797E-4
1.705500E-7	8.427991E-4
1.706000E-7	7.485869E-4
1.706500E-7	6.817818E-4
1.707000E-7	6.595135E-4
1.707500E-7	6.903466E-4
1.708000E-7	7.605775E-4
1.708500E-7	8.513639E-4
1.709000E-7	9.558538E-4
1.709500E-7	1.067196E-3
1.710000E-7	1.185389E-3
1.710500E-7	1.298444E-3
1.711000E-7	1.377240E-3
1.711500E-7	1.406360E-3
1.712000E-7	1.378953E-3
1.712500E-7	1.308722E-3
1.713000E-7	1.212796E-3
1.713500E-7	1.104881E-3
1.714000E-7	9.918258E-4
1.714500E-7	8.993265E-4
1.715000E-7	8.479380E-4
1.715500E-7	8.205308E-4
1.716000E-7	8.136790E-4
1.716500E-7	8.342344E-4
1.717000E-7	8.753452E-4
1.717500E-7	9.164560E-4
1.718000E-7	9.558538E-4
1.718500E-7	9.798351E-4
1.719000E-7	9.661315E-4
1.719500E-7	9.524279E-4
1.720000E-7	9.421502E-4
1.720500E-7	9.130301E-4
1.721000E-7	8.633545E-4
1.721500E-7	8.496509E-4
1.722000E-7	8.565027E-4
1.722500E-7	8.650675E-4
1.723000E-7	9.164560E-4
1.723500E-7	1.027798E-3
1.724000E-7	1.145991E-3
1.724500E-7	1.217935E-3
1.725000E-7	1.260759E-3
1.725500E-7	1.289879E-3
1.726000E-7	1.300157E-3
1.726500E-7	1.298444E-3
1.727000E-7	1.265898E-3
1.727500E-7	1.200806E-3
1.728000E-7	1.120297E-3
1.728500E-7	1.043214E-3
1.729000E-7	9.627056E-4
1.729500E-7	8.890488E-4
1.730000E-7	8.273826E-4
1.730500E-7	7.588646E-4
1.731000E-7	6.697912E-4
1.731500E-7	5.909955E-4
1.732000E-7	5.515976E-4
1.732500E-7	5.344681E-4
1.733000E-7	5.464588E-4
1.733500E-7	6.098379E-4
1.734000E-7	7.177538E-4
1.734500E-7	8.308085E-4
1.735000E-7	9.335855E-4
1.735500E-7	1.029511E-3
1.736000E-7	1.123723E-3
1.736500E-7	1.192241E-3
1.737000E-7	1.228213E-3
1.737500E-7	1.219648E-3
1.738000E-7	1.164834E-3
1.738500E-7	1.079186E-3
1.739000E-7	9.901128E-4
1.739500E-7	8.976135E-4
1.740000E-7	8.119660E-4
1.740500E-7	7.657164E-4
1.741000E-7	7.640034E-4
1.741500E-7	7.948365E-4
1.742000E-7	8.496509E-4
1.742500E-7	9.215948E-4
1.743000E-7	1.003816E-3
1.743500E-7	1.096316E-3
1.744000E-7	1.188815E-3
1.744500E-7	1.259046E-3
1.745000E-7	1.277888E-3
1.745500E-7	1.248768E-3
1.746000E-7	1.181963E-3
1.746500E-7	1.077473E-3
1.747000E-7	9.370114E-4
1.747500E-7	7.879847E-4
1.748000E-7	6.526617E-4
1.748500E-7	5.361811E-4
1.749000E-7	4.385429E-4
1.749500E-7	3.717379E-4
1.750000E-7	3.580343E-4
1.750500E-7	3.871544E-4
1.751000E-7	4.522465E-4
1.751500E-7	5.584494E-4
1.752000E-7	6.612264E-4
1.752500E-7	7.280315E-4
1.753000E-7	7.965495E-4
1.753500E-7	8.753452E-4
1.754000E-7	9.335855E-4
1.754500E-7	9.678445E-4
1.755000E-7	1.005529E-3
1.755500E-7	1.050066E-3
1.756000E-7	1.084325E-3
1.756500E-7	1.108306E-3
1.757000E-7	1.128862E-3
1.757500E-7	1.147704E-3
1.758000E-7	1.176824E-3
1.758500E-7	1.226500E-3
1.759000E-7	1.277888E-3
1.759500E-7	1.296731E-3
1.760000E-7	1.291592E-3
1.760500E-7	1.288166E-3
1.761000E-7	1.260759E-3
1.761500E-7	1.180250E-3
1.762000E-7	1.063770E-3
1.762500E-7	9.267337E-4
1.763000E-7	7.759941E-4
1.763500E-7	6.286804E-4
1.764000E-7	5.156257E-4
1.764500E-7	4.453947E-4
1.765000E-7	4.214134E-4
1.765500E-7	4.453947E-4
1.766000E-7	5.156257E-4
1.766500E-7	6.303933E-4
1.767000E-7	7.931236E-4
1.767500E-7	9.627056E-4
1.768000E-7	1.099742E-3
1.768500E-7	1.216222E-3
1.769000E-7	1.308722E-3
1.769500E-7	1.361823E-3
1.770000E-7	1.377240E-3
1.770500E-7	1.366962E-3
1.771000E-7	1.339555E-3
1.771500E-7	1.298444E-3
1.772000E-7	1.229926E-3
1.772500E-7	1.122010E-3
1.773000E-7	9.969646E-4
1.773500E-7	8.839099E-4
1.774000E-7	7.862718E-4
1.774500E-7	7.074761E-4
1.775000E-7	6.612264E-4
1.775500E-7	6.338192E-4
1.776000E-7	6.064120E-4
1.776500E-7	5.653012E-4
1.777000E-7	5.293293E-4
1.777500E-7	5.224775E-4
1.778000E-7	5.584494E-4
1.778500E-7	6.012732E-4
1.779000E-7	6.389581E-4
1.779500E-7	6.903466E-4
1.780000E-7	7.640034E-4
1.780500E-7	8.496509E-4
1.781000E-7	9.455761E-4
1.781500E-7	1.063770E-3
1.782000E-7	1.197380E-3
1.782500E-7	1.324138E-3
1.783000E-7	1.428628E-3
1.783500E-7	1.483442E-3
1.784000E-7	1.464600E-3
1.784500E-7	1.416637E-3
1.785000E-7	1.358397E-3
1.785500E-7	1.277888E-3
1.786000E-7	1.166547E-3
1.786500E-7	1.053492E-3
1.787000E-7	9.421502E-4
1.787500E-7	8.016883E-4
1.788000E-7	6.595135E-4
1.788500E-7	5.567365E-4
1.789000E-7	5.139127E-4
1.789500E-7	5.070609E-4
1.790000E-7	5.173386E-4
1.790500E-7	5.224775E-4
1.791000E-7	5.241904E-4
1.791500E-7	5.413199E-4
1.792000E-7	5.464588E-4
1.792500E-7	5.121998E-4
1.793000E-7	4.676631E-4
1.793500E-7	4.248393E-4
1.794000E-7	3.700249E-4
1.794500E-7	3.169235E-4
1.795000E-7	2.946551E-4
1.795500E-7	2.689609E-4
1.796000E-7	2.227112E-4
1.796500E-7	2.158594E-4
1.797000E-7	2.569702E-4
1.797500E-7	2.963681E-4
1.798000E-7	3.443307E-4
1.798500E-7	4.265523E-4
1.799000E-7	4.984962E-4
1.799500E-7	5.361811E-4
1.800000E-7	5.704401E-4
1.800500E-7	6.046991E-4
1.801000E-7	5.995602E-4
1.801500E-7	5.755789E-4
1.802000E-7	5.807178E-4
1.802500E-7	6.098379E-4
1.803000E-7	6.475228E-4
1.803500E-7	7.040502E-4
1.804000E-7	7.931236E-4
1.804500E-7	9.284466E-4
1.805000E-7	1.086038E-3
1.805500E-7	1.205945E-3
1.806000E-7	1.255620E-3
1.806500E-7	1.257333E-3
1.807000E-7	1.235065E-3
1.807500E-7	1.183676E-3
1.808000E-7	1.115158E-3
1.808500E-7	1.015807E-3
1.809000E-7	9.027524E-4
1.809500E-7	8.051142E-4
1.810000E-7	7.451610E-4
1.810500E-7	6.920595E-4
1.811000E-7	6.509487E-4
1.811500E-7	6.389581E-4
1.812000E-7	6.355322E-4
1.812500E-7	6.440969E-4
1.813000E-7	6.663653E-4
1.813500E-7	6.817818E-4
1.814000E-7	6.766430E-4
1.814500E-7	6.680782E-4
1.815000E-7	6.560876E-4
1.815500E-7	6.252545E-4
1.816000E-7	6.098379E-4
1.816500E-7	6.543746E-4
1.817000E-7	7.177538E-4
1.817500E-7	7.725682E-4
1.818000E-7	8.530768E-4
1.818500E-7	9.849740E-4
1.819000E-7	1.130575E-3
1.819500E-7	1.281314E-3
1.820000E-7	1.437193E-3
1.820500E-7	1.581081E-3
1.821000E-7	1.682145E-3
1.821500E-7	1.740385E-3
1.822000E-7	1.766079E-3
1.822500E-7	1.733533E-3
1.823000E-7	1.637608E-3
1.823500E-7	1.481730E-3
1.824000E-7	1.305296E-3
1.824500E-7	1.134001E-3
1.825000E-7	9.781222E-4
1.825500E-7	8.308085E-4
1.826000E-7	7.006243E-4
1.826500E-7	6.098379E-4
1.827000E-7	5.601624E-4
1.827500E-7	5.430329E-4
1.828000E-7	5.378940E-4
1.828500E-7	5.447458E-4
1.829000E-7	5.464588E-4
1.829500E-7	5.464588E-4
1.830000E-7	5.533106E-4
1.830500E-7	5.687271E-4
1.831000E-7	5.961343E-4
1.831500E-7	6.612264E-4
1.832000E-7	7.605775E-4
1.832500E-7	8.530768E-4
1.833000E-7	9.147430E-4
1.833500E-7	9.695574E-4
1.834000E-7	1.043214E-3
1.834500E-7	1.113445E-3
1.835000E-7	1.154556E-3
1.835500E-7	1.178537E-3
1.836000E-7	1.211083E-3
1.836500E-7	1.241917E-3
1.837000E-7	1.257333E-3
1.837500E-7	1.257333E-3
1.838000E-7	1.236778E-3
1.838500E-7	1.209370E-3
1.839000E-7	1.199093E-3
1.839500E-7	1.214509E-3
1.840000E-7	1.236778E-3
1.840500E-7	1.259046E-3
1.841000E-7	1.276176E-3
1.841500E-7	1.269324E-3
1.842000E-7	1.236778E-3
1.842500E-7	1.180250E-3
1.843000E-7	1.113445E-3
1.843500E-7	1.067196E-3
1.844000E-7	1.026085E-3
1.844500E-7	9.472891E-4
1.845000E-7	8.342344E-4
1.845500E-7	7.314574E-4
1.846000E-7	6.578005E-4
1.846500E-7	6.081250E-4
1.847000E-7	5.892825E-4
1.847500E-7	6.149768E-4
1.848000E-7	6.595135E-4
1.848500E-7	7.074761E-4
1.849000E-7	7.657164E-4
1.849500E-7	8.393732E-4
1.850000E-7	9.078912E-4
1.850500E-7	9.609927E-4
1.851000E-7	9.969646E-4
1.851500E-7	1.015807E-3
1.852000E-7	1.019233E-3
1.852500E-7	1.024372E-3
1.853000E-7	1.032937E-3
1.853500E-7	1.020946E-3
1.854000E-7	9.764092E-4
1.854500E-7	9.181689E-4
1.855000E-7	8.650675E-4
1.855500E-7	7.965495E-4
1.856000E-7	7.040502E-4
1.856500E-7	6.046991E-4
1.857000E-7	5.327552E-4
1.857500E-7	4.710890E-4
1.858000E-7	4.145616E-4
1.858500E-7	3.922933E-4
1.859000E-7	4.077098E-4
1.859500E-7	4.334041E-4
1.860000E-7	4.608113E-4
1.860500E-7	5.207645E-4
1.861000E-7	6.423840E-4
1.861500E-7	7.811329E-4
1.862000E-7	8.993265E-4
1.862500E-7	1.002103E-3
1.863000E-7	1.101455E-3
1.863500E-7	1.181963E-3
1.864000E-7	1.233352E-3
1.864500E-7	1.260759E-3
1.865000E-7	1.257333E-3
1.865500E-7	1.243629E-3
1.866000E-7	1.255620E-3
1.866500E-7	1.284740E-3
1.867000E-7	1.313860E-3
1.867500E-7	1.346406E-3
1.868000E-7	1.411499E-3
1.868500E-7	1.500572E-3
1.869000E-7	1.589645E-3
1.869500E-7	1.653025E-3
1.870000E-7	1.673580E-3
1.870500E-7	1.642747E-3
1.871000E-7	1.560525E-3
1.871500E-7	1.450896E-3
1.872000E-7	1.327564E-3
1.872500E-7	1.188815E-3
1.873000E-7	1.036363E-3
1.873500E-7	8.941876E-4
1.874000E-7	7.879847E-4
1.874500E-7	7.314574E-4
1.875000E-7	7.194667E-4
1.875500E-7	7.485869E-4
1.876000E-7	7.931236E-4
1.876500E-7	8.325214E-4
1.877000E-7	8.702063E-4
1.877500E-7	9.078912E-4
1.878000E-7	9.147430E-4
1.878500E-7	8.650675E-4
1.879000E-7	7.896977E-4
1.879500E-7	7.246056E-4
1.880000E-7	6.578005E-4
1.880500E-7	5.909955E-4
1.881000E-7	5.310422E-4
1.881500E-7	4.796537E-4
1.882000E-7	4.522465E-4
1.882500E-7	4.728019E-4
1.883000E-7	5.207645E-4
1.883500E-7	5.772919E-4
1.884000E-7	6.560876E-4
1.884500E-7	7.502998E-4
1.885000E-7	8.068272E-4
1.885500E-7	8.171049E-4
1.886000E-7	8.034013E-4
1.886500E-7	7.691423E-4
1.887000E-7	7.074761E-4
1.887500E-7	6.338192E-4
1.888000E-7	5.464588E-4
1.888500E-7	4.710890E-4
1.889000E-7	4.282652E-4
1.889500E-7	4.197005E-4
1.890000E-7	4.299782E-4
1.890500E-7	4.625242E-4
1.891000E-7	5.053480E-4
1.891500E-7	5.259034E-4
1.892000E-7	5.515976E-4
1.892500E-7	6.218286E-4
1.893000E-7	6.971984E-4
1.893500E-7	7.485869E-4
1.894000E-7	8.171049E-4
1.894500E-7	9.061783E-4
1.895000E-7	9.592797E-4
1.895500E-7	9.935387E-4
1.896000E-7	1.032937E-3
1.896500E-7	1.072334E-3
1.897000E-7	1.118584E-3
1.897500E-7	1.187102E-3
1.898000E-7	1.250481E-3
1.898500E-7	1.310435E-3
1.899000E-7	1.389230E-3
1.899500E-7	1.449183E-3
1.900000E-7	1.466313E-3
1.900500E-7	1.452609E-3
1.901000E-7	1.401221E-3
1.901500E-7	1.289879E-3
1.902000E-7	1.128862E-3
1.902500E-7	9.421502E-4
1.903000E-7	7.314574E-4
1.903500E-7	5.190516E-4
1.904000E-7	3.357659E-4
1.904500E-7	1.867393E-4
1.905000E-7	9.595292E-5
1.905500E-7	9.937882E-5
1.906000E-7	1.884522E-4
1.906500E-7	3.289141E-4
1.907000E-7	4.967832E-4
1.907500E-7	6.869207E-4
1.908000E-7	8.839099E-4
1.908500E-7	1.056918E-3
1.909000E-7	1.185389E-3
1.909500E-7	1.260759E-3
1.910000E-7	1.271037E-3
1.910500E-7	1.211083E-3
1.911000E-7	1.110019E-3
1.911500E-7	9.935387E-4
1.912000E-7	8.702063E-4
1.912500E-7	7.365962E-4
1.913000E-7	6.184027E-4
1.913500E-7	5.361811E-4
1.914000E-7	4.728019E-4
1.914500E-7	4.231264E-4
1.915000E-7	3.991451E-4
1.915500E-7	4.077098E-4
1.916000E-7	4.745149E-4
1.916500E-7	5.858566E-4
1.917000E-7	7.006243E-4
1.917500E-7	7.879847E-4
1.918000E-7	8.719193E-4
1.918500E-7	9.472891E-4
1.919000E-7	9.883999E-4
1.919500E-7	9.832610E-4
1.920000E-7	9.575668E-4
1.920500E-7	9.404373E-4
1.921000E-7	9.318725E-4
1.921500E-7	9.250207E-4
1.922000E-7	9.147430E-4
1.922500E-7	9.198819E-4
1.923000E-7	9.541409E-4
1.923500E-7	1.014094E-3
1.924000E-7	1.074047E-3
1.924500E-7	1.139140E-3
1.925000E-7	1.207658E-3
1.925500E-7	1.259046E-3
1.926000E-7	1.269324E-3
1.926500E-7	1.260759E-3
1.927000E-7	1.248768E-3
1.927500E-7	1.205945E-3
1.928000E-7	1.151130E-3
1.928500E-7	1.101455E-3
1.929000E-7	1.031224E-3
1.929500E-7	9.404373E-4
1.930000E-7	8.582157E-4
1.930500E-7	7.622905E-4
1.931000E-7	6.389581E-4
1.931500E-7	5.515976E-4
1.932000E-7	5.156257E-4
1.932500E-7	4.813667E-4
1.933000E-7	4.573854E-4
1.933500E-7	4.676631E-4
1.934000E-7	4.967832E-4
1.934500E-7	5.464588E-4
1.935000E-7	6.543746E-4
1.935500E-7	7.931236E-4
1.936000E-7	9.130301E-4
1.936500E-7	1.020946E-3
1.937000E-7	1.111732E-3
1.937500E-7	1.171686E-3
1.938000E-7	1.195667E-3
1.938500E-7	1.195667E-3
1.939000E-7	1.169973E-3
1.939500E-7	1.120297E-3
1.940000E-7	1.056918E-3
1.940500E-7	9.969646E-4
1.941000E-7	9.438632E-4
1.941500E-7	9.010394E-4
1.942000E-7	8.890488E-4
1.942500E-7	9.181689E-4
1.943000E-7	9.695574E-4
1.943500E-7	1.007242E-3
1.944000E-7	1.022659E-3
1.944500E-7	1.003816E-3
1.945000E-7	9.575668E-4
1.945500E-7	8.804840E-4
1.946000E-7	7.914106E-4
1.946500E-7	7.040502E-4
1.947000E-7	6.269674E-4
1.947500E-7	5.635883E-4
1.948000E-7	5.276163E-4
1.948500E-7	5.481717E-4
1.949000E-7	6.184027E-4
1.949500E-7	7.074761E-4
1.950000E-7	8.239567E-4
1.950500E-7	9.661315E-4
1.951000E-7	1.092890E-3
1.951500E-7	1.175111E-3
1.952000E-7	1.236778E-3
1.952500E-7	1.272750E-3
1.953000E-7	1.252194E-3
1.953500E-7	1.192241E-3
1.954000E-7	1.111732E-3
1.954500E-7	1.019233E-3
1.955000E-7	9.301596E-4
1.955500E-7	8.753452E-4
1.956000E-7	8.736322E-4
1.956500E-7	8.959006E-4
1.957000E-7	9.096042E-4
1.957500E-7	9.181689E-4
1.958000E-7	9.472891E-4
1.958500E-7	1.002103E-3
1.959000E-7	1.060344E-3
1.959500E-7	1.118584E-3
1.960000E-7	1.178537E-3
1.960500E-7	1.231639E-3
1.961000E-7	1.250481E-3
1.961500E-7	1.279601E-3
1.962000E-7	1.330990E-3
1.962500E-7	1.366962E-3
1.963000E-7	1.368675E-3
1.963500E-7	1.360110E-3
1.964000E-7	1.342981E-3
1.964500E-7	1.312147E-3
1.965000E-7	1.262472E-3
1.965500E-7	1.214509E-3
1.966000E-7	1.178537E-3
1.966500E-7	1.161408E-3
1.967000E-7	1.152843E-3
1.967500E-7	1.132288E-3
1.968000E-7	1.116871E-3
1.968500E-7	1.106593E-3
1.969000E-7	1.086038E-3
1.969500E-7	1.062057E-3
1.970000E-7	1.053492E-3
1.970500E-7	1.050066E-3
1.971000E-7	1.041501E-3
1.971500E-7	1.038075E-3
1.972000E-7	1.031224E-3
1.972500E-7	1.027798E-3
1.973000E-7	1.031224E-3
1.973500E-7	1.032937E-3
1.974000E-7	1.020946E-3
1.974500E-7	1.038075E-3
1.975000E-7	1.094603E-3
1.975500E-7	1.123723E-3
1.976000E-7	1.106593E-3
1.976500E-7	1.068909E-3
1.977000E-7	1.000391E-3
1.977500E-7	9.010394E-4
1.978000E-7	8.205308E-4
1.978500E-7	7.708552E-4
1.979000E-7	7.314574E-4
1.979500E-7	7.126149E-4
1.980000E-7	7.554387E-4
1.980500E-7	8.427991E-4
1.981000E-7	9.490020E-4
1.981500E-7	1.074047E-3
1.982000E-7	1.219648E-3
1.982500E-7	1.363536E-3
1.983000E-7	1.476591E-3
1.983500E-7	1.545109E-3
1.984000E-7	1.577655E-3
1.984500E-7	1.567377E-3
1.985000E-7	1.495433E-3
1.985500E-7	1.387517E-3
1.986000E-7	1.298444E-3
1.986500E-7	1.231639E-3
1.987000E-7	1.151130E-3
1.987500E-7	1.094603E-3
1.988000E-7	1.094603E-3
1.988500E-7	1.123723E-3
1.989000E-7	1.183676E-3
1.989500E-7	1.277888E-3
1.990000E-7	1.353258E-3
1.990500E-7	1.358397E-3
1.991000E-7	1.327564E-3
1.991500E-7	1.281314E-3
1.992000E-7	1.193954E-3
1.992500E-7	1.089464E-3
1.993000E-7	1.002103E-3
1.993500E-7	9.387243E-4
1.994000E-7	9.044653E-4
1.994500E-7	9.233078E-4
1.995000E-7	9.609927E-4
1.995500E-7	9.986776E-4
1.996000E-7	1.063770E-3
1.996500E-7	1.139140E-3
1.997000E-7	1.169973E-3
1.997500E-7	1.178537E-3
1.998000E-7	1.188815E-3
1.998500E-7	1.178537E-3
1.999000E-7	1.111732E-3
1.999500E-7	1.024372E-3
2.000000E-7	9.558538E-4
